File: SAMPLE-MPT/20220309_SSB_Cell_03_Form01/20220309_(Form02C)EIS_charging_10bis16V_step_01V+(1C+EIS)50cycle_14_GCPL6_C08.mpt
EC-Lab ASCII FILE
Nb header lines : 76

Galvanostatic Cycling with Potential Limitation 6

Run on channel : 8 (SN 14384)
User :
CE vs. WE compliance from -10 V to 10 V
Electrode connection : standard
Potential control : Ewe-Ece
Ecell ctrl range : min = 0,00 V, max = 5,00 V
Safety Limits :
	Do not start on E overload
Acquisition started on : 03/09/2022 13:55:05.456
Technique started on : 03/09/2022 22:51:06.397
Loaded Setting File :  C:\DATA\x_Data_VMP3\Extern\InES\Binbin\001_Testing_Profiles\20220308_(Form02C)EIS_charging_10bis16V_step_01V+(1C+EIS)50cycle.mps
Saved on :
	File : 20220309_(Form02C)EIS_charging_10bis16V_step_01V+(1C+EIS)50cycle_14_GCPL6_C08.mpr
	Directory : C:\DATA\x_Data_VMP3\Extern\InES\Binbin\20220309_SSB_Cell_03_Form01\
	Host : 134.169.45.143
Device : VMP3 (SN 0787)
Address : 134.169.45.150
EC-Lab for windows v11.42 (software)
Internet server v11.40 (firmware)
Command interpretor v11.40 (firmware)
Electrode material :
Initial state :
Electrolyte :
Comments :
Electrode surface area : 0,000 cm²
Characteristic mass : 0,001 g
Equivalent Weight : 0,000 g/eq.
Density : 0,000 g/cm3
Volume (V) : 0,001 cm³
Record Ece
Record Power
Cycle Definition : Charge/Discharge alternance
Ns                  0                   1
Set I/C             I                   I
Is                  0,000               20,000
unit Is             mA                  µA
vs.                 <None>              <None>
N                   1,00                1,00
I sign              > 0                 > 0
t1 (h:m:s)          0:00:0,0000         20:00:0,0000
I Range             100 µA              100 µA
Bandwidth           5                   5
dE1 (mV)            0,00                0,00
dt1 (s)             0,0000              5,0000
EM (V)              0,000               1,600
tM (h:m:s)          0:00:0,0000         10:00:0,0000
Im                  0,000               10,000
unit Im             mA                  µA
dI/dt               0,000               0,000
dunit dI/dt         mA/s                mA/s
E range min (V)     0,000               0,000
E range max (V)     5,000               5,000
dq                  0,000               1,000
unit dq             mA.h                mA.h
dtq (s)             0,0000              120,0000
dQM                 0,000               0,000
unit dQM            mA.h                mA.h
dxM                 0,000               0,000
delta SoC (%)       pass                pass
tR (h:m:s)          0:00:10,0000        0:01:0,0000
dER/dt (mV/h)       0,0                 0,1
dER (mV)            0,00                0,00
dtR (s)             1,0000              120,0000
EL (V)              pass                pass
goto Ns'            0                   0
nc cycles           0                   0

Number of loops : 1
Loop 0 from point number 0 to 3608

mode	ox/red	error	control changes	Ns changes	counter inc.	Ns	time/s	dq/mA.h	(Q-Qo)/mA.h	control/V/mA	Ewe/V	I Range	Q charge/discharge/mA.h	half cycle	Ece/V	P/W	Energy charge/W.h	Energy discharge/W.h	Capacitance charge/µF	Capacitance discharge/µF	<I>/mA	Q discharge/mA.h	Q charge/mA.h	Capacity/mA.h	Efficiency/%	control/V	control/mA	cycle number	 Ecell/V
3	1	0	0	0	0	0	3,216094052388147E+004	0,000000000000000E+000	0,000000000000000E+000	0,0000000E+000	1,0514146E+001	14	0,000000000000000E+000	0	1,3589114E+001	0,0000000E+000	0,000000000000000E+000	0,000000000000000E+000	0,000000000000000E+000	0,000000000000000E+000	0,000000000000000E+000	0,000000000000000E+000	0,000000000000000E+000	0,000000000000000E+000	0,0000000E+000	0,0000000E+000	0,0000000E+000	0,000000000000000E+000	-3,0749683E+000
1	1	0	1	0	0	1	3,291094071679795E+004	2,785517358034849E-005	4,122620983954208E-003	2,0000001E-002	1,3577898E+001	13	4,122620983954206E-003	0	1,2078234E+001	2,7231459E-004	5,597118610350770E-005	0,000000000000000E+000	4,844202369354806E+003	0,000000000000000E+000	2,005572494049422E-002	0,000000000000000E+000	4,122620983954206E-003	4,122620983954206E-003	0,0000000E+000	0,0000000E+000	2,0000001E-002	0,000000000000000E+000	1,4996643E+000
1	1	0	1	0	0	1	3,370594071827875E+004	2,785554244069176E-005	8,551674800965107E-003	2,0000001E-002	1,3577698E+001	13	8,551674800965109E-003	0	1,2064260E+001	2,7231418E-004	1,161020115377880E-004	0,000000000000000E+000	1,004912933109711E+004	0,000000000000000E+000	2,005599051994087E-002	0,000000000000000E+000	8,551674800965109E-003	8,551674800965109E-003	0,0000000E+000	0,0000000E+000	2,0000001E-002	0,000000000000000E+000	1,5134382E+000
1	1	0	1	0	0	1	3,450094071975956E+004	2,785512436771145E-005	1,298072366559464E-002	2,0000001E-002	1,3577618E+001	13	1,298072366559464E-002	0	1,2053875E+001	2,7230848E-004	1,762324837553115E-004	0,000000000000000E+000	1,525413267577870E+004	0,000000000000000E+000	2,005568950739561E-002	0,000000000000000E+000	1,298072366559464E-002	1,298072366559464E-002	0,0000000E+000	0,0000000E+000	2,0000001E-002	0,000000000000000E+000	1,5237427E+000
1	1	0	1	0	0	1	3,529594072124036E+004	2,785514904693183E-005	1,740975706612122E-002	2,0000001E-002	1,3576134E+001	13	1,740975706612124E-002	0	1,2044215E+001	2,7227896E-004	2,363632441764008E-004	0,000000000000000E+000	2,046876994877313E+004	0,000000000000000E+000	2,005570727643425E-002	0,000000000000000E+000	1,740975706612124E-002	1,740975706612124E-002	0,0000000E+000	0,0000000E+000	2,0000001E-002	0,000000000000000E+000	1,5319185E+000
1	1	0	1	0	0	1	3,609094072272116E+004	2,785539973340929E-005	2,183878337624141E-002	2,0000001E-002	1,3575292E+001	13	2,183878337624142E-002	0	1,2036102E+001	2,7226453E-004	2,964927089653452E-004	0,000000000000000E+000	2,568306958939207E+004	0,000000000000000E+000	2,005588777069768E-002	0,000000000000000E+000	2,183878337624142E-002	2,183878337624142E-002	0,0000000E+000	0,0000000E+000	2,0000001E-002	0,000000000000000E+000	1,5391893E+000
1	1	0	1	0	0	1	3,688594072420197E+004	2,785479304898116E-005	2,626778380645243E-002	2,0000001E-002	1,3575212E+001	13	2,626778380645244E-002	0	1,2030356E+001	2,7225699E-004	3,566213332485503E-004	0,000000000000000E+000	3,089251645652161E+004	0,000000000000000E+000	2,005545095791025E-002	0,000000000000000E+000	2,626778380645244E-002	2,626778380645244E-002	0,0000000E+000	0,0000000E+000	2,0000001E-002	0,000000000000000E+000	1,5448551E+000
1	1	0	1	0	0	1	3,768094072568277E+004	2,785534536207302E-005	3,069678318768947E-002	2,0000001E-002	1,3577016E+001	13	3,069678316423558E-002	0	1,2026538E+001	2,7229858E-004	4,167519073741025E-004	0,000000000000000E+000	3,608002248425339E+004	0,000000000000000E+000	2,005584862333564E-002	0,000000000000000E+000	3,069678316423558E-002	3,069678316423558E-002	0,0000000E+000	0,0000000E+000	2,0000001E-002	0,000000000000000E+000	1,5504780E+000
1	1	0	1	0	0	1	3,847594072716357E+004	2,785626674164087E-005	3,512589919497393E-002	2,0000001E-002	1,3575893E+001	13	3,512589910546488E-002	0	1,2020220E+001	2,7228508E-004	4,768830780539169E-004	0,000000000000000E+000	4,130100038451725E+004	0,000000000000000E+000	2,005651201662326E-002	0,000000000000000E+000	3,512589910546488E-002	3,512589910546488E-002	0,0000000E+000	0,0000000E+000	2,0000001E-002	0,000000000000000E+000	1,5556736E+000
1	1	0	1	0	0	1	3,927094072864437E+004	2,785664542174588E-005	3,955516713573204E-002	2,0000001E-002	1,3575372E+001	13	3,955516698025720E-002	0	1,2015008E+001	2,7227830E-004	5,370173771018670E-004	0,000000000000000E+000	4,651685507505609E+004	0,000000000000000E+000	2,005678466629836E-002	0,000000000000000E+000	3,955516698025720E-002	3,955516698025720E-002	0,0000000E+000	0,0000000E+000	2,0000001E-002	0,000000000000000E+000	1,5603638E+000
1	1	0	1	0	0	1	4,006594073012518E+004	2,785583542007953E-005	4,398438688737878E-002	2,0000001E-002	1,3575974E+001	13	4,398438666590554E-002	0	1,2011286E+001	2,7228246E-004	5,971480575418310E-004	0,000000000000000E+000	5,171544894123386E+004	0,000000000000000E+000	2,005620146509968E-002	0,000000000000000E+000	4,398438666590554E-002	4,398438666590554E-002	0,0000000E+000	0,0000000E+000	2,0000001E-002	0,000000000000000E+000	1,5646877E+000
1	1	0	1	0	0	1	4,086094073160598E+004	2,785587511894604E-005	4,841353827933491E-002	2,0000001E-002	1,3577256E+001	13	4,841353799195535E-002	0	1,2008498E+001	2,7230859E-004	6,572774796082311E-004	0,000000000000000E+000	5,689926798821797E+004	0,000000000000000E+000	2,005623004828351E-002	0,000000000000000E+000	4,841353799195535E-002	4,841353799195535E-002	0,0000000E+000	0,0000000E+000	2,0000001E-002	0,000000000000000E+000	1,5687580E+000
1	1	0	1	0	0	1	4,165594073308678E+004	2,785577704209007E-005	5,284267370915754E-002	2,0000001E-002	1,3575933E+001	13	5,284267335572922E-002	0	1,2003497E+001	2,7228109E-004	7,174074377366119E-004	0,000000000000000E+000	6,213155470099228E+004	0,000000000000000E+000	2,005615943294734E-002	0,000000000000000E+000	5,284267335572922E-002	5,284267335572922E-002	0,0000000E+000	0,0000000E+000	2,0000001E-002	0,000000000000000E+000	1,5724363E+000
1	1	0	1	0	0	1	4,245094073456759E+004	2,785571121072604E-005	5,727182586012460E-002	2,0000001E-002	1,3575853E+001	13	5,727182544069778E-002	0	1,2000290E+001	2,7227882E-004	7,775370686548323E-004	0,000000000000000E+000	6,734104149810896E+004	0,000000000000000E+000	2,005611203436533E-002	0,000000000000000E+000	5,727182544069778E-002	5,727182544069778E-002	0,0000000E+000	0,0000000E+000	2,0000001E-002	0,000000000000000E+000	1,5755634E+000
1	1	0	1	0	0	1	4,324594073604839E+004	2,785597451145036E-005	6,170098783759690E-002	2,0000001E-002	1,3575091E+001	13	6,170098732367561E-002	0	1,1996128E+001	2,7226613E-004	8,376682690128261E-004	0,000000000000000E+000	7,256697434725509E+004	0,000000000000000E+000	2,005630161088649E-002	0,000000000000000E+000	6,170098732367561E-002	6,170098732367561E-002	0,0000000E+000	0,0000000E+000	2,0000001E-002	0,000000000000000E+000	1,5789633E+000
1	1	0	1	0	0	1	4,404094073752919E+004	2,785568578665455E-005	6,613013443474430E-002	2,0000001E-002	1,3575893E+001	13	6,613013381819902E-002	0	1,1994123E+001	2,7227937E-004	8,977989722510354E-004	0,000000000000000E+000	7,775575150555187E+004	0,000000000000000E+000	2,005609372903389E-002	0,000000000000000E+000	6,613013381819902E-002	6,613013381819902E-002	0,0000000E+000	0,0000000E+000	2,0000001E-002	0,000000000000000E+000	1,5817699E+000
1	1	0	1	0	0	1	4,483594073901000E+004	2,785590197239071E-005	7,055919750575473E-002	2,0000001E-002	1,3576695E+001	13	7,055919678661875E-002	0	1,1992043E+001	2,7229759E-004	9,579277074496385E-004	0,000000000000000E+000	8,294171273926699E+004	0,000000000000000E+000	2,005624938276364E-002	0,000000000000000E+000	7,055919678661875E-002	7,055919678661875E-002	0,0000000E+000	0,0000000E+000	2,0000001E-002	0,000000000000000E+000	1,5846529E+000
1	1	0	1	0	0	1	4,563094074049080E+004	2,785574821072320E-005	7,498827278725741E-002	2,0000001E-002	1,3575613E+001	13	7,498827196529011E-002	0	1,1988206E+001	2,7227437E-004	1,018057355375100E-003	0,000000000000000E+000	8,817921735609106E+004	0,000000000000000E+000	2,005613867436324E-002	0,000000000000000E+000	7,498827196529011E-002	7,498827196529011E-002	0,0000000E+000	0,0000000E+000	2,0000001E-002	0,000000000000000E+000	1,5874071E+000
1	1	0	1	0	0	1	4,642594074197160E+004	2,785565670507236E-005	7,941734073827519E-002	2,0000001E-002	1,3574650E+001	13	7,941733981384036E-002	0	1,1984884E+001	2,7225417E-004	1,078184237831953E-003	0,000000000000000E+000	9,341677942543257E+004	0,000000000000000E+000	2,005607279029475E-002	0,000000000000000E+000	7,941733981384036E-002	7,941733981384036E-002	0,0000000E+000	0,0000000E+000	2,0000001E-002	0,000000000000000E+000	1,5897655E+000
1	1	0	1	0	0	1	4,722094074345240E+004	2,785655390471220E-005	8,384647778135000E-002	2,0000001E-002	1,3576534E+001	13	8,384647675406195E-002	0	1,1984369E+001	2,7230073E-004	1,138310153867808E-003	0,000000000000000E+000	9,856598017839799E+004	0,000000000000000E+000	2,005671877403423E-002	0,000000000000000E+000	8,384647675406195E-002	8,384647675406195E-002	0,0000000E+000	0,0000000E+000	2,0000001E-002	0,000000000000000E+000	1,5921650E+000
1	1	0	1	0	0	1	4,801594074493321E+004	2,785660193912271E-005	8,827557087765106E-002	2,0000001E-002	1,3576534E+001	13	8,827556974775905E-002	0	1,1982097E+001	2,7230120E-004	1,198439295365899E-003	0,000000000000000E+000	1,037726138871171E+005	0,000000000000000E+000	2,005675335880974E-002	0,000000000000000E+000	8,827556974775905E-002	8,827556974775905E-002	0,0000000E+000	0,0000000E+000	2,0000001E-002	0,000000000000000E+000	1,5944376E+000
1	1	0	1	0	0	1	4,881094074641401E+004	2,785614766304692E-005	9,270464664310331E-002	2,0000001E-002	1,3574731E+001	13	9,270464541045048E-002	0	1,1978012E+001	2,7226060E-004	1,258566804461149E-003	0,000000000000000E+000	1,090434413949123E+005	0,000000000000000E+000	2,005642628003577E-002	0,000000000000000E+000	9,270464541045048E-002	9,270464541045048E-002	0,0000000E+000	0,0000000E+000	2,0000001E-002	0,000000000000000E+000	1,5967188E+000
1	1	0	1	0	0	1	4,960594074789481E+004	2,785694211442024E-005	9,713374620019975E-002	2,0000001E-002	1,3573327E+001	13	9,713374486500787E-002	0	1,1974919E+001	2,7224020E-004	1,318693997438871E-003	0,000000000000000E+000	1,143055795402850E+005	0,000000000000000E+000	2,005699828502350E-002	0,000000000000000E+000	9,713374486500787E-002	9,713374486500787E-002	0,0000000E+000	0,0000000E+000	2,0000001E-002	0,000000000000000E+000	1,5984077E+000
3	1	0	1	0	0	1	5,017964434896338E+004	0,000000000000000E+000	9,999468789757499E-002	0,0000000E+000	1,5169991E+001	14	9,999468758809173E-002	0	1,3574702E+001	0,0000000E+000	1,357538441959678E-003	5,129689757687558E-009	1,820373927406304E+005	1,698152137741815E+004	0,000000000000000E+000	0,000000000000000E+000	9,999468758809173E-002	9,999468758809173E-002	0,0000000E+000	0,0000000E+000	0,0000000E+000	0,000000000000000E+000	1,5952892E+000