File: SAMPLE-MPT/20220309_SSB_Cell_03_Form01/20220309_(Form02C)EIS_charging_10bis16V_step_01V+(1C+EIS)50cycle_09_GEIS_C08.mpt
EC-Lab ASCII FILE
Nb header lines : 72

Galvano Electrochemical Impedance Spectroscopy

Run on channel : 8 (SN 14384)
User :
CE vs. WE compliance from -10 V to 10 V
Electrode connection : standard
Potential control : Ewe-Ece
Ewe ctrl range : min = 0,00 V, max = 5,00 V
Safety Limits :
	Do not start on E overload
Acquisition started on : 03/09/2022 13:55:05.456
Technique started on : 03/09/2022 19:47:01.180
Loaded Setting File :  C:\DATA\x_Data_VMP3\Extern\InES\Binbin\001_Testing_Profiles\20220308_(Form02C)EIS_charging_10bis16V_step_01V+(1C+EIS)50cycle.mps
Saved on :
	File : 20220309_(Form02C)EIS_charging_10bis16V_step_01V+(1C+EIS)50cycle_09_GEIS_C08.mpr
	Directory : C:\DATA\x_Data_VMP3\Extern\InES\Binbin\20220309_SSB_Cell_03_Form01\
	Host : 134.169.45.143
Device : VMP3 (SN 0787)
Address : 134.169.45.150
EC-Lab for windows v11.42 (software)
Internet server v11.40 (firmware)
Command interpretor v11.40 (firmware)
Electrode material :
Initial state :
Electrolyte :
Comments :
Electrode surface area : 0,000 cm²
Characteristic mass : 0,001 g
Equivalent Weight : 0,000 g/eq.
Density : 0,000 g/cm3
Volume (V) : 0,001 cm³
Record Ece
Record Power
Cycle Definition : Charge/Discharge alternance
Mode                Single sine
Is                  0,000
unit Is             µA
vs.                 <None>
tIs (h:m:s)         0:00:0,0000
record              0
dE (mV)             0,000
dt (s)              0,000
fi                  1,000
unit fi             MHz
ff                  5,000
unit ff             mHz
Nd                  6
Points              per decade
spacing             Logarithmic
Ia/Va               Ia
Ia                  5,000
unit  Ia            µA
va pourcent         0,10
pw                  0,10
Na                  2
corr                0
E range min (V)     0,000
E range max (V)     5,000
I Range             10 µA
Bandwidth           5
nc cycles           0
goto Ns'            0
nr cycles           0
inc. cycle          0

Number of loops : 1
Loop 0 from point number 0 to 49

freq/Hz	Re(Z)/Ohm	-Im(Z)/Ohm	|Z|/Ohm	Phase(Z)/deg	time/s	<Ewe>/V	<I>/mA	Cs/µF	Cp/µF	cycle number	|Ewe|/V	|I|/A	Ns	I Range	(Q-Qo)/mA.h	<Ece>/V	|Ece|/V	Phase(Zce)/deg	|Zce|/Ohm	Re(Zce)/Ohm	-Im(Zce)/Ohm	Phase(Zwe-ce)/deg	|Zwe-ce|/Ohm	Re(Zwe-ce)/Ohm	-Im(Zwe-ce)/Ohm	P/W	Re(Y)/Ohm-1	Im(Y)/Ohm-1	|Y|/Ohm-1	Phase(Y)/deg	dq/mA.h
1,0000186E+006	-2,7970331E+001	4,4636696E+001	5,2676125E+001	-1,2207216E+002	2,111572362203675E+004	1,3576398E+001	1,0907258E-005	3,5654965E-003	2,5602153E-003	1,000000000000000E+000	2,7550521E-004	5,2301725E-006	0	14	2,246908740883353E-009	1,2337655E+001	1,9550434E-004	4,6871220E+001	3,7380093E+001	2,5554543E+001	-2,7280701E+001	-9,7924110E+001	1,7523315E+001	-2,4157887E+000	1,7355995E+001	0,0000000E+000	-1,0080219E-002	1,6086604E-002	1,8983932E-002	1,2207216E+002	2,246908740883353E-009
3,1029172E+005	1,0904336E+001	3,5409801E+001	3,7050758E+001	-7,2883949E+001	2,111674762208539E+004	1,3576323E+001	1,5638354E-005	1,4485266E-002	1,3230591E-002	1,000000000000000E+000	1,6775113E-004	4,5276033E-006	0	14	1,672063116605690E-009	1,2336973E+001	1,5165984E-004	-1,8964123E+001	3,3496716E+001	3,1678589E+001	1,0885630E+001	-4,7391891E+001	6,2901291E+001	4,2582924E+001	4,6295433E+001	0,0000000E+000	7,9433750E-003	2,5794629E-002	2,6990000E-002	7,2883949E+001	-2,832024791025055E-009
9,6283031E+004	8,4743490E+000	-7,6252913E+000	1,1399985E+001	4,1981152E+001	2,111764062212780E+004	1,3576394E+001	1,7826063E-005	-2,1677737E-001	-9,6988052E-002	1,000000000000000E+000	5,3856187E-005	4,7242329E-006	0	14	-1,912573095094356E-009	1,2336372E+001	2,6315943E-004	-4,6989830E+001	5,5704159E+001	3,7997375E+001	4,0732700E+001	-3,5466850E+001	5,7058933E+001	4,6471725E+001	3,3107410E+001	0,0000000E+000	6,5207534E-002	-5,8674295E-002	8,7719411E-002	-4,1981152E+001	3,659089144952708E-010
2,9876783E+004	8,9969236E-001	-9,8975623E-001	1,3375589E+000	4,7729038E+001	2,111879562218266E+004	1,3576361E+001	1,6417234E-005	-5,3821778E+000	-2,9470584E+000	1,000000000000000E+000	6,3304665E-006	4,7328508E-006	0	14	4,099215511890482E-009	1,2338537E+001	5,5907544E-004	-5,1692284E+001	1,1812657E+002	7,3224854E+001	9,2693085E+001	-5,1051113E+001	1,1791501E+002	7,4124542E+001	9,1703331E+001	0,0000000E+000	5,0288445E-001	-5,5322582E-001	7,4763066E-001	-4,7729038E+001	-1,114852464621742E-009
9,2692256E+003	-1,6683713E+000	-1,6694870E+000	2,3602223E+000	1,3498085E+002	2,111995062223752E+004	1,3576421E+001	1,5731679E-005	-1,0284748E+001	-5,1458116E+000	1,000000000000000E+000	1,1210895E-005	4,7499316E-006	0	14	5,230826402339516E-009	1,2337214E+001	1,1638599E-003	-4,9936970E+001	2,4502666E+002	1,5770650E+002	1,8752792E+002	-4,9984737E+001	2,4267520E+002	1,5603813E+002	1,8585843E+002	0,0000000E+000	-2,9949313E-001	-2,9969341E-001	4,2368889E-001	-1,3498085E+002	-1,064347341778355E-009
2,8779956E+003	1,9622511E-001	-4,0715814E+000	4,0763068E+000	8,7240829E+001	2,112116262229509E+004	1,3576165E+001	5,7277671E-006	-1,3582099E+001	-1,3550627E+001	1,000000000000000E+000	1,8734307E-005	4,5959018E-006	0	14	1,943405220137922E-008	1,2339298E+001	2,1174278E-003	-4,2446457E+001	4,6072086E+002	3,3996976E+002	3,1094092E+002	-4,2054138E+001	4,5812845E+002	3,4016599E+002	3,0686932E+002	0,0000000E+000	1,1809219E-002	-2,4503569E-001	2,4532010E-001	-8,7240829E+001	1,736854485854006E-009
8,9299957E+002	-2,1251786E-001	1,8862801E+000	1,8982140E+000	-9,6428123E+001	2,112272962236952E+004	1,3576325E+001	5,6661943E-006	9,4484970E+001	9,3300659E+001	1,000000000000000E+000	9,0969352E-006	4,7923654E-006	0	14	2,183330726253037E-008	1,2338176E+001	3,6154117E-003	-3,2645912E+001	7,5441071E+002	6,3522919E+002	4,0696362E+002	-3,2775105E+001	7,5525122E+002	6,3501666E+002	4,0884991E+002	0,0000000E+000	-5,8980025E-002	5,2349901E-001	5,2681100E-001	9,6428123E+001	2,837590467215201E-009
2,7686047E+002	-1,3287123E+000	2,7104995E+000	3,0186560E+000	-1,1611452E+002	2,112406062243273E+004	1,3575981E+001	5,9218260E-006	2,1208495E+002	1,7099416E+002	1,000000000000000E+000	1,4383492E-005	4,7648664E-006	0	14	2,783191550786847E-008	1,2334126E+001	5,1534222E-003	-2,4359140E+001	1,0815460E+003	9,8526465E+002	4,4608893E+002	-2,4518995E+001	1,0814578E+003	9,8393591E+002	4,4879944E+002	0,0000000E+000	-1,4581549E-001	2,9745558E-001	3,3127326E-001	1,1611452E+002	2,099394340935610E-009
8,5907173E+001	-9,8522365E-001	1,3253257E+001	1,3289826E+001	-9,4251450E+001	2,112539162249595E+004	1,3575804E+001	8,4476223E-006	1,3978741E+002	1,3901917E+002	1,000000000000000E+000	6,3295884E-005	4,7627323E-006	0	14	2,428527788197243E-008	1,2344550E+001	6,6934815E-003	-1,7108124E+001	1,4053868E+003	1,3432003E+003	4,1343088E+002	-1,7635227E+001	1,4084036E+003	1,3422151E+003	4,2668414E+002	0,0000000E+000	-5,5782311E-003	7,5038478E-002	7,5245529E-002	9,4251450E+001	-2,559442693988485E-009
2,6682035E+001	6,2749181E+000	-1,3435783E+001	1,4828853E+001	6,4966003E+001	2,112671962255903E+004	1,3575938E+001	7,1798786E-006	-4,4395419E+002	-3,6445932E+002	1,000000000000000E+000	7,0564187E-005	4,7585736E-006	0	14	3,446777364312463E-008	1,2344590E+001	8,0114994E-003	-1,2640052E+001	1,6835927E+003	1,6427892E+003	3,6841284E+002	-1,2148102E+001	1,6868376E+003	1,6490641E+003	3,5497705E+002	0,0000000E+000	2,8535986E-002	-6,1100941E-002	6,7436099E-002	-6,4966003E+001	-8,667542550079423E-010
8,2759562E+000	5,3202572E+000	9,8015130E-001	5,4097905E+000	-1,0438558E+001	2,112811062262510E+004	1,3575781E+001	9,4455527E-006	1,9620443E+004	6,4407166E+002	1,000000000000000E+000	2,5758924E-005	4,7615381E-006	0	14	6,435096882821907E-008	1,2337173E+001	9,0614930E-003	-9,0908508E+000	1,9030601E+003	1,8791558E+003	3,0068423E+002	-9,0946712E+000	1,9084684E+003	1,8844761E+003	3,0166440E+002	0,0000000E+000	1,8179072E-001	3,3491317E-002	1,8485004E-001	1,0438558E+001	4,817261062099635E-008
2,5682116E+000	1,0782243E+001	1,8046916E+000	1,0932231E+001	-9,5018759E+000	2,112993062271154E+004	1,3575859E+001	6,0043171E-006	3,4338898E+004	9,3578210E+002	1,000000000000000E+000	5,2054496E-005	4,7615622E-006	0	14	-1,198424440966998E-008	1,2337855E+001	9,9932719E-003	-8,4908400E+000	2,0987380E+003	2,0757349E+003	3,0988141E+002	-8,4960794E+000	2,1096687E+003	2,0865171E+003	3,1168610E+002	0,0000000E+000	9,0217657E-002	1,5100294E-002	9,1472641E-002	9,5018759E+000	1,327723200688525E-009
7,9621863E-001	-7,3377934E+000	4,6595860E+000	8,6922350E+000	-1,4758397E+002	2,113563662298257E+004	1,3575748E+001	7,1363779E-006	4,2898340E+004	1,2327421E+004	1,000000000000000E+000	4,1386476E-005	4,7613157E-006	0	14	3,011050937232685E-007	1,2337415E+001	1,1208820E-002	-9,3454170E+000	2,3541436E+003	2,3228977E+003	3,8228000E+002	-9,4867067E+000	2,3476667E+003	2,3155598E+003	3,8693958E+002	0,0000000E+000	-9,7118631E-002	6,1671484E-002	1,1504521E-001	1,4758397E+002	9,341799900813421E-008
2,4724665E-001	1,0161604E+001	4,6394343E+000	1,1170610E+001	-2,4539787E+001	2,115388962384954E+004	1,3575861E+001	7,1784903E-006	1,3874734E+005	2,3933209E+004	1,000000000000000E+000	5,3185915E-005	4,7612361E-006	0	14	-6,093424481132387E-007	1,2359303E+001	1,3174587E-002	-9,4475727E+000	2,7670518E+003	2,7295200E+003	4,5419788E+002	-9,5075645E+000	2,7778386E+003	2,7396816E+003	4,5883731E+002	0,0000000E+000	8,1434503E-002	3,7180156E-002	8,9520626E-002	2,4539787E+001	-5,466627257066092E-007
7,6773763E-002	3,6471033E+000	-1,5367194E+001	1,5794050E+001	7,6648979E+001	2,121258662663749E+004	1,3576337E+001	6,7920992E-006	-1,3490023E+005	-1,2770704E+005	1,000000000000000E+000	7,5198892E-005	4,7612166E-006	0	14	6,760565780460739E-008	1,2344310E+001	1,6790574E-002	-1,4302618E+001	3,5265303E+003	3,4172236E+003	8,7120563E+002	-1,4046028E+001	3,5263035E+003	3,4208708E+003	8,5583844E+002	0,0000000E+000	1,4620458E-002	-6,1603807E-002	6,3314982E-002	-7,6648979E+001	1,183514108421567E-006
2,3795672E-002	3,1573339E+001	1,5021870E+001	3,4964729E+001	-2,5444033E+001	2,140169863561983E+004	1,3576993E+001	6,7438182E-006	4,4524409E+005	8,2183719E+004	1,000000000000000E+000	1,6647266E-004	4,7611597E-006	0	14	8,643008459867689E-006	1,2373215E+001	2,1225384E-002	-1,4760343E+001	4,4580278E+003	4,3109126E+003	1,1358008E+003	-1,4843015E+001	4,4923911E+003	4,3424858E+003	1,1508226E+003	0,0000000E+000	2,5826178E-002	1,2287503E-002	2,8600249E-002	2,5444033E+001	2,362568174490687E-006
7,3873415E-003	1,0470960E+001	1,8411978E+001	2,1181170E+001	-6,0372952E+001	2,201099366455979E+004	1,3576647E+001	6,6981579E-006	1,1701230E+006	8,8416338E+005	1,000000000000000E+000	1,0084708E-004	4,7611666E-006	0	14	-2,172598891276569E-005	1,2438442E+001	3,1996548E-002	-1,1752213E+001	6,7203169E+003	6,5794429E+003	1,3687913E+003	-1,1887433E+001	6,7343374E+003	6,5899141E+003	1,3872032E+003	0,0000000E+000	2,3339236E-002	4,1039363E-002	4,7211748E-002	6,0372952E+001	-1,789852540371271E-005
5,0018891E-003	6,3604975E+000	-1,6737181E+001	1,7905003E+001	6,9192108E+001	2,243233568457246E+004	1,3576318E+001	7,2014705E-006	-1,9010946E+006	-1,6611911E+006	1,000000000000000E+000	8,5243293E-005	4,7608646E-006	0	14	-4,140819378536919E-005	1,2436799E+001	3,6109544E-002	-1,2233617E+001	7,5846611E+003	7,4124268E+003	1,6071763E+003	-1,2099918E+001	7,5873511E+003	7,4187871E+003	1,5904391E+003	0,0000000E+000	1,9840026E-002	-5,2207574E-002	5,5850312E-002	-6,9192108E+001	-1,968220487260350E-005