File: SAMPLE-MPT/20220309_SSB_Cell_03_Form01/20220309_(Form02C)EIS_charging_10bis16V_step_01V+(1C+EIS)50cycle_08_GCPL6_C08.mpt
EC-Lab ASCII FILE
Nb header lines : 76

Galvanostatic Cycling with Potential Limitation 6

Run on channel : 8 (SN 14384)
User :
CE vs. WE compliance from -10 V to 10 V
Electrode connection : standard
Potential control : Ewe-Ece
Ecell ctrl range : min = 0,00 V, max = 5,00 V
Safety Limits :
	Do not start on E overload
Acquisition started on : 03/09/2022 13:55:05.456
Technique started on : 03/09/2022 18:44:25.237
Loaded Setting File :  C:\DATA\x_Data_VMP3\Extern\InES\Binbin\001_Testing_Profiles\20220308_(Form02C)EIS_charging_10bis16V_step_01V+(1C+EIS)50cycle.mps
Saved on :
	File : 20220309_(Form02C)EIS_charging_10bis16V_step_01V+(1C+EIS)50cycle_08_GCPL6_C08.mpr
	Directory : C:\DATA\x_Data_VMP3\Extern\InES\Binbin\20220309_SSB_Cell_03_Form01\
	Host : 134.169.45.143
Device : VMP3 (SN 0787)
Address : 134.169.45.150
EC-Lab for windows v11.42 (software)
Internet server v11.40 (firmware)
Command interpretor v11.40 (firmware)
Electrode material :
Initial state :
Electrolyte :
Comments :
Electrode surface area : 0,000 cm²
Characteristic mass : 0,001 g
Equivalent Weight : 0,000 g/eq.
Density : 0,000 g/cm3
Volume (V) : 0,001 cm³
Record Ece
Record Power
Cycle Definition : Charge/Discharge alternance
Ns                  0                   1
Set I/C             I                   I
Is                  0,000               20,000
unit Is             mA                  µA
vs.                 <None>              <None>
N                   1,00                1,00
I sign              > 0                 > 0
t1 (h:m:s)          0:00:0,0000         20:00:0,0000
I Range             100 µA              100 µA
Bandwidth           5                   5
dE1 (mV)            0,00                0,00
dt1 (s)             0,0000              5,0000
EM (V)              0,000               1,300
tM (h:m:s)          0:00:0,0000         10:00:0,0000
Im                  0,000               10,000
unit Im             mA                  µA
dI/dt               0,000               0,000
dunit dI/dt         mA/s                mA/s
E range min (V)     0,000               0,000
E range max (V)     5,000               5,000
dq                  0,000               1,000
unit dq             mA.h                mA.h
dtq (s)             0,0000              120,0000
dQM                 0,000               0,000
unit dQM            mA.h                mA.h
dxM                 0,000               0,000
delta SoC (%)       pass                pass
tR (h:m:s)          0:00:10,0000        0:01:0,0000
dER/dt (mV/h)       0,0                 0,1
dER (mV)            0,00                0,00
dtR (s)             1,0000              120,0000
EL (V)              pass                pass
goto Ns'            0                   0
nc cycles           0                   0

Number of loops : 1
Loop 0 from point number 0 to 163

mode	ox/red	error	control changes	Ns changes	counter inc.	Ns	time/s	dq/mA.h	(Q-Qo)/mA.h	control/V/mA	Ewe/V	I Range	Q charge/discharge/mA.h	half cycle	Ece/V	P/W	Energy charge/W.h	Energy discharge/W.h	Capacitance charge/µF	Capacitance discharge/µF	<I>/mA	Q discharge/mA.h	Q charge/mA.h	Capacity/mA.h	Efficiency/%	control/V	control/mA	cycle number	 Ecell/V
3	1	0	1	0	0	0	1,735978086745553E+004	0,000000000000000E+000	0,000000000000000E+000	0,0000000E+000	1,0514146E+001	14	0,000000000000000E+000	0	1,3591439E+001	0,0000000E+000	0,000000000000000E+000	0,000000000000000E+000	0,000000000000000E+000	0,000000000000000E+000	0,000000000000000E+000	0,000000000000000E+000	0,000000000000000E+000	0,000000000000000E+000	0,0000000E+000	0,0000000E+000	0,0000000E+000	0,000000000000000E+000	-3,0772934E+000
3	1	0	1	0	0	0	1,736778086735867E+004	0,000000000000000E+000	0,000000000000000E+000	0,0000000E+000	1,4633914E+001	14	0,000000000000000E+000	0	1,3578030E+001	0,0000000E+000	0,000000000000000E+000	0,000000000000000E+000	0,000000000000000E+000	0,000000000000000E+000	0,000000000000000E+000	0,000000000000000E+000	0,000000000000000E+000	0,000000000000000E+000	0,0000000E+000	0,0000000E+000	0,0000000E+000	0,000000000000000E+000	1,0558844E+000
1	1	0	0	0	0	1	1,739478106703177E+004	2,785653116885159E-005	1,392881467363073E-004	2,0000001E-002	1,3578740E+001	13	1,392881467363073E-004	0	1,2345046E+001	2,7234474E-004	1,891245724657938E-006	0,000000000000000E+000	1,636227455477313E+002	0,000000000000000E+000	2,005670268440352E-002	0,000000000000000E+000	1,392881467363073E-004	1,392881467363073E-004	0,0000000E+000	0,0000000E+000	2,0000001E-002	0,000000000000000E+000	1,2336941E+000
1	1	0	0	0	0	1	1,743478106654748E+004	2,785640794235385E-005	3,621400627492823E-004	2,0000001E-002	1,3578780E+001	13	3,621400627492824E-004	0	1,2325361E+001	2,7234436E-004	4,917112982677771E-006	0,000000000000000E+000	4,254028665221337E+002	0,000000000000000E+000	2,005661396132408E-002	0,000000000000000E+000	3,621400627492824E-004	3,621400627492824E-004	0,0000000E+000	0,0000000E+000	2,0000001E-002	0,000000000000000E+000	1,2534189E+000
1	1	0	0	0	0	1	1,747478106606319E+004	2,785673214815971E-005	5,849943479984585E-004	2,0000001E-002	1,3576856E+001	13	5,849943479984586E-004	0	1,2313935E+001	2,7230891E-004	7,942909652149736E-006	0,000000000000000E+000	6,876197173669850E+002	0,000000000000000E+000	2,005684738950712E-002	0,000000000000000E+000	5,849943479984586E-004	5,849943479984586E-004	0,0000000E+000	0,0000000E+000	2,0000001E-002	0,000000000000000E+000	1,2629204E+000
1	1	0	0	0	0	1	1,751478106557891E+004	2,785685179548131E-005	8,078491364923409E-004	2,0000001E-002	1,3576615E+001	13	8,078491364923410E-004	0	1,2307882E+001	2,7230527E-004	1,096868525934707E-005	0,000000000000000E+000	9,496443664387172E+002	0,000000000000000E+000	2,005693353557972E-002	0,000000000000000E+000	8,078491364923410E-004	8,078491364923410E-004	0,0000000E+000	0,0000000E+000	2,0000001E-002	0,000000000000000E+000	1,2687330E+000
1	1	0	0	0	0	1	1,755478106509462E+004	2,785659149961753E-005	1,030702300858477E-003	2,0000001E-002	1,3578620E+001	13	1,030702300858477E-003	0	1,2304955E+001	2,7234294E-004	1,399451697322780E-005	0,000000000000000E+000	1,210820569841144E+003	0,000000000000000E+000	2,005674612255553E-002	0,000000000000000E+000	1,030702300858477E-003	1,030702300858477E-003	0,0000000E+000	0,0000000E+000	2,0000001E-002	0,000000000000000E+000	1,2736645E+000
1	1	0	0	0	0	1	1,759478106461033E+004	2,785619594963888E-005	1,253553898980324E-003	2,0000001E-002	1,3577256E+001	13	1,253553898980323E-003	0	1,2300024E+001	2,7231174E-004	1,702024591685453E-005	0,000000000000000E+000	1,473271778807178E+003	0,000000000000000E+000	2,005646132656745E-002	0,000000000000000E+000	1,253553898980323E-003	1,253553898980323E-003	0,0000000E+000	0,0000000E+000	2,0000001E-002	0,000000000000000E+000	1,2772322E+000
1	1	0	0	0	0	1	1,763478106412604E+004	2,785673000808391E-005	1,476403232458979E-003	2,0000001E-002	1,3576334E+001	13	1,476403232458979E-003	0	1,2295815E+001	2,7229844E-004	2,004596642720594E-005	0,000000000000000E+000	1,735703810185021E+003	0,000000000000000E+000	2,005684584865253E-002	0,000000000000000E+000	1,476403232458979E-003	1,476403232458979E-003	0,0000000E+000	0,0000000E+000	2,0000001E-002	0,000000000000000E+000	1,2805195E+000
1	1	0	0	0	0	1	1,767478106364176E+004	2,785633662653466E-005	1,699256511444019E-003	2,0000001E-002	1,3577336E+001	13	1,699256511444019E-003	0	1,2294011E+001	2,7231470E-004	2,307167462432534E-005	0,000000000000000E+000	1,997043122414568E+003	0,000000000000000E+000	2,005656261393364E-002	0,000000000000000E+000	1,699256511444019E-003	1,699256511444019E-003	0,0000000E+000	0,0000000E+000	2,0000001E-002	0,000000000000000E+000	1,2833252E+000
1	1	0	0	0	0	1	1,771478106315747E+004	2,785602286633932E-005	1,922106350063346E-003	2,0000001E-002	1,3578740E+001	13	1,922106350063346E-003	0	1,2292768E+001	2,7233979E-004	2,609730035303960E-005	0,000000000000000E+000	2,257911571093613E+003	0,000000000000000E+000	2,005633670659026E-002	0,000000000000000E+000	1,922106350063346E-003	1,922106350063346E-003	0,0000000E+000	0,0000000E+000	2,0000001E-002	0,000000000000000E+000	1,2859726E+000
1	1	0	0	0	0	1	1,775478106267318E+004	2,785598410314156E-005	2,144954820560188E-003	2,0000001E-002	1,3577898E+001	13	2,144954820560189E-003	0	1,2289320E+001	2,7232253E-004	2,912299243672168E-005	0,000000000000000E+000	2,520385760504851E+003	0,000000000000000E+000	2,005630879708753E-002	0,000000000000000E+000	2,144954820560189E-003	2,144954820560189E-003	0,0000000E+000	0,0000000E+000	2,0000001E-002	0,000000000000000E+000	1,2885780E+000
1	1	0	0	0	0	1	1,779478106218889E+004	2,785589367482397E-005	2,367803439401918E-003	2,0000001E-002	1,3577538E+001	13	2,367803439401918E-003	0	1,2286915E+001	2,7231441E-004	3,214890208848326E-005	0,000000000000000E+000	2,782566924834825E+003	0,000000000000000E+000	2,005624368869808E-002	0,000000000000000E+000	2,367803439401918E-003	2,367803439401918E-003	0,0000000E+000	0,0000000E+000	2,0000001E-002	0,000000000000000E+000	1,2906227E+000
1	1	0	0	0	0	1	1,783478106170461E+004	2,785607679157207E-005	2,590651292492429E-003	2,0000001E-002	1,3578820E+001	13	2,590651292492429E-003	0	1,2285872E+001	2,7234192E-004	3,517472201838217E-005	0,000000000000000E+000	3,043176371892076E+003	0,000000000000000E+000	2,005637553275831E-002	0,000000000000000E+000	2,590651292492429E-003	2,590651292492429E-003	0,0000000E+000	0,0000000E+000	2,0000001E-002	0,000000000000000E+000	1,2929478E+000
1	1	0	0	0	0	1	1,787478106122032E+004	2,785693598590377E-005	2,813504982012428E-003	2,0000001E-002	1,3579542E+001	13	2,813504982012428E-003	0	1,2283948E+001	2,7236479E-004	3,820076637809221E-005	0,000000000000000E+000	3,304178942814375E+003	0,000000000000000E+000	2,005699415268462E-002	0,000000000000000E+000	2,813504982012428E-003	2,813504982012428E-003	0,0000000E+000	0,0000000E+000	2,0000001E-002	0,000000000000000E+000	1,2955942E+000
1	1	0	0	0	0	1	1,791478106073603E+004	2,785719652794715E-005	3,036361438835040E-003	2,0000001E-002	1,3579301E+001	13	3,036361438835040E-003	0	1,2282144E+001	2,7236249E-004	4,122674335001616E-005	0,000000000000000E+000	3,566182158921214E+003	0,000000000000000E+000	2,005718174295813E-002	0,000000000000000E+000	3,036361438835040E-003	3,036361438835040E-003	0,0000000E+000	0,0000000E+000	2,0000001E-002	0,000000000000000E+000	1,2971573E+000
1	1	0	0	0	0	1	1,795478106025174E+004	2,785734188908504E-005	3,259222606465117E-003	2,0000001E-002	1,3576936E+001	13	3,259222606465118E-003	0	1,2278094E+001	2,7231651E-004	4,425276863891786E-005	0,000000000000000E+000	3,830886773584854E+003	0,000000000000000E+000	2,005728640297868E-002	0,000000000000000E+000	3,259222606465118E-003	3,259222606465118E-003	0,0000000E+000	0,0000000E+000	2,0000001E-002	0,000000000000000E+000	1,2988415E+000
2	1	0	1	0	0	1	1,832759925573797E+004	5,869919766884090E-004	5,159689615397508E-003	1,3000113E+000	1,3577978E+001	13	5,159689615397508E-003	0	1,2281383E+001	2,3910493E-004	7,005731810408140E-005	0,000000000000000E+000	6,062630359492709E+003	0,000000000000000E+000	1,760975951385704E-002	0,000000000000000E+000	5,159689615397508E-003	5,159689615397508E-003	0,0000000E+000	1,3000113E+000	0,0000000E+000	0,000000000000000E+000	1,2965956E+000
2	1	0	1	0	0	1	1,928759924411506E+004	4,617697423047179E-004	9,244792574457048E-003	1,3000113E+000	1,3578419E+001	13	9,244792574457050E-003	0	1,2281463E+001	1,8810309E-004	1,255253197398168E-004	0,000000000000000E+000	1,086106054041316E+004	0,000000000000000E+000	1,385309243686361E-002	0,000000000000000E+000	9,244792574457050E-003	9,244792574457050E-003	0,0000000E+000	1,3000113E+000	0,0000000E+000	0,000000000000000E+000	1,2969561E+000
2	1	0	1	0	0	1	2,024759923249215E+004	3,837215670389641E-004	1,256810876380419E-002	1,3000113E+000	1,3577336E+001	13	1,256810876380420E-002	0	1,2280781E+001	1,5629751E-004	1,706470683270799E-004	0,000000000000000E+000	1,477060996940620E+004	0,000000000000000E+000	1,151164715054266E-002	0,000000000000000E+000	1,256810876380420E-002	1,256810876380420E-002	0,0000000E+000	1,3000113E+000	0,0000000E+000	0,000000000000000E+000	1,2965555E+000
2	1	0	1	0	0	1	2,105479922271922E+004	5,548291115297211E-010	1,496071434894897E-002	1,3000113E+000	1,3575532E+001	13	1,496071434304641E-002	0	1,2278456E+001	1,3557781E-004	2,031307841995066E-004	0,000000000000000E+000	1,759287124456939E+004	0,000000000000000E+000	9,986924259825909E-003	0,000000000000000E+000	1,496071434304641E-002	1,496071434304641E-002	0,0000000E+000	1,3000113E+000	0,0000000E+000	0,000000000000000E+000	1,2970762E+000
3	1	0	0	0	0	1	2,111479942199279E+004	0,000000000000000E+000	1,496071546140189E-002	0,0000000E+000	1,4815627E+001	14	1,496071434304641E-002	0	1,3575144E+001	0,0000000E+000	2,031307841995066E-004	0,000000000000000E+000	1,759287124456939E+004	0,000000000000000E+000	0,000000000000000E+000	0,000000000000000E+000	1,496071434304641E-002	1,496071434304641E-002	0,0000000E+000	0,0000000E+000	0,0000000E+000	0,000000000000000E+000	1,2404833E+000