File: SAMPLE-MPT/20220309_SSB_Cell_03_Form01/20220309_(Form02C)EIS_charging_10bis16V_step_01V+(1C+EIS)50cycle_06_GCPL6_C08.mpt
EC-Lab ASCII FILE
Nb header lines : 76

Galvanostatic Cycling with Potential Limitation 6

Run on channel : 8 (SN 14384)
User :
CE vs. WE compliance from -10 V to 10 V
Electrode connection : standard
Potential control : Ewe-Ece
Ecell ctrl range : min = 0,00 V, max = 5,00 V
Safety Limits :
	Do not start on E overload
Acquisition started on : 03/09/2022 13:55:05.456
Technique started on : 03/09/2022 17:21:44.205
Loaded Setting File :  C:\DATA\x_Data_VMP3\Extern\InES\Binbin\001_Testing_Profiles\20220308_(Form02C)EIS_charging_10bis16V_step_01V+(1C+EIS)50cycle.mps
Saved on :
	File : 20220309_(Form02C)EIS_charging_10bis16V_step_01V+(1C+EIS)50cycle_06_GCPL6_C08.mpr
	Directory : C:\DATA\x_Data_VMP3\Extern\InES\Binbin\20220309_SSB_Cell_03_Form01\
	Host : 134.169.45.143
Device : VMP3 (SN 0787)
Address : 134.169.45.150
EC-Lab for windows v11.42 (software)
Internet server v11.40 (firmware)
Command interpretor v11.40 (firmware)
Electrode material :
Initial state :
Electrolyte :
Comments :
Electrode surface area : 0,000 cm²
Characteristic mass : 0,001 g
Equivalent Weight : 0,000 g/eq.
Density : 0,000 g/cm3
Volume (V) : 0,001 cm³
Record Ece
Record Power
Cycle Definition : Charge/Discharge alternance
Ns                  0                   1
Set I/C             I                   I
Is                  0,000               20,000
unit Is             mA                  µA
vs.                 <None>              <None>
N                   1,00                1,00
I sign              > 0                 > 0
t1 (h:m:s)          0:00:0,0000         20:00:0,0000
I Range             100 µA              100 µA
Bandwidth           5                   5
dE1 (mV)            0,00                0,00
dt1 (s)             0,0000              5,0000
EM (V)              0,000               1,200
tM (h:m:s)          0:00:0,0000         10:00:0,0000
Im                  0,000               10,000
unit Im             mA                  µA
dI/dt               0,000               0,000
dunit dI/dt         mA/s                mA/s
E range min (V)     0,000               0,000
E range max (V)     5,000               5,000
dq                  0,000               1,000
unit dq             mA.h                mA.h
dtq (s)             0,0000              120,0000
dQM                 0,000               0,000
unit dQM            mA.h                mA.h
dxM                 0,000               0,000
delta SoC (%)       pass                pass
tR (h:m:s)          0:00:10,0000        0:01:0,0000
dER/dt (mV/h)       0,0                 0,1
dER (mV)            0,00                0,00
dtR (s)             1,0000              120,0000
EL (V)              pass                pass
goto Ns'            0                   0
nc cycles           0                   0

Number of loops : 1
Loop 0 from point number 0 to 89

mode	ox/red	error	control changes	Ns changes	counter inc.	Ns	time/s	dq/mA.h	(Q-Qo)/mA.h	control/V/mA	Ewe/V	I Range	Q charge/discharge/mA.h	half cycle	Ece/V	P/W	Energy charge/W.h	Energy discharge/W.h	Capacitance charge/µF	Capacitance discharge/µF	<I>/mA	Q discharge/mA.h	Q charge/mA.h	Capacity/mA.h	Efficiency/%	control/V	control/mA	cycle number	 Ecell/V
3	1	0	0	0	0	0	1,239874904896997E+004	0,000000000000000E+000	0,000000000000000E+000	0,0000000E+000	1,0514146E+001	14	0,000000000000000E+000	0	1,3593764E+001	0,0000000E+000	0,000000000000000E+000	0,000000000000000E+000	0,000000000000000E+000	0,000000000000000E+000	0,000000000000000E+000	0,000000000000000E+000	0,000000000000000E+000	0,000000000000000E+000	0,0000000E+000	0,0000000E+000	0,0000000E+000	0,000000000000000E+000	-3,0796185E+000
3	1	0	0	0	0	0	1,240274904892154E+004	0,000000000000000E+000	0,000000000000000E+000	0,0000000E+000	1,4498035E+001	14	0,000000000000000E+000	0	1,3581117E+001	0,0000000E+000	0,000000000000000E+000	0,000000000000000E+000	0,000000000000000E+000	0,000000000000000E+000	0,000000000000000E+000	0,000000000000000E+000	0,000000000000000E+000	0,000000000000000E+000	0,0000000E+000	0,0000000E+000	0,0000000E+000	0,000000000000000E+000	9,1691875E-001
3	1	0	0	0	0	0	1,240674904887311E+004	0,000000000000000E+000	0,000000000000000E+000	0,0000000E+000	1,4496872E+001	14	0,000000000000000E+000	0	1,3581598E+001	0,0000000E+000	0,000000000000000E+000	0,000000000000000E+000	0,000000000000000E+000	0,000000000000000E+000	0,000000000000000E+000	0,000000000000000E+000	0,000000000000000E+000	0,000000000000000E+000	0,0000000E+000	0,0000000E+000	0,0000000E+000	0,000000000000000E+000	9,1527367E-001
1	1	0	1	0	0	1	1,241374924878836E+004	2,785982017984821E-005	2,786204030571712E-005	2,0000001E-002	1,3581547E+001	13	2,786204030571712E-005	0	1,2493662E+001	2,7243322E-004	3,784027938782303E-007	0,000000000000000E+000	3,269978307823600E+001	0,000000000000000E+000	2,005907077234976E-002	0,000000000000000E+000	2,786204030571712E-005	2,786204030571712E-005	0,0000000E+000	0,0000000E+000	2,0000001E-002	0,000000000000000E+000	1,0878849E+000
1	1	0	1	0	0	1	1,243374924854621E+004	2,785976566529522E-005	1,393013556167069E-004	2,0000001E-002	1,3580263E+001	13	1,393013556167069E-004	0	1,2456457E+001	2,7240693E-004	1,891753496178347E-006	0,000000000000000E+000	1,635569788534756E+002	0,000000000000000E+000	2,005903152187113E-002	0,000000000000000E+000	1,393013556167069E-004	1,393013556167069E-004	0,0000000E+000	0,0000000E+000	2,0000001E-002	0,000000000000000E+000	1,1238060E+000
1	1	0	1	0	0	1	1,245374924830407E+004	2,785992083398418E-005	2,507408832652080E-004	2,0000001E-002	1,3580103E+001	13	2,507408832652080E-004	0	1,2438858E+001	2,7240525E-004	3,405234401951431E-006	0,000000000000000E+000	2,944161184658368E+002	0,000000000000000E+000	2,005914324332854E-002	0,000000000000000E+000	2,507408832652080E-004	2,507408832652080E-004	0,0000000E+000	0,0000000E+000	2,0000001E-002	0,000000000000000E+000	1,1412449E+000
1	1	0	1	0	0	1	1,247374924806193E+004	2,785947671843072E-005	3,621792603318269E-004	2,0000001E-002	1,3579662E+001	13	3,621792603318269E-004	0	1,2426270E+001	2,7239206E-004	4,918537743618139E-006	0,000000000000000E+000	4,253264822296915E+002	0,000000000000000E+000	2,005882348012617E-002	0,000000000000000E+000	3,621792603318269E-004	3,621792603318269E-004	0,0000000E+000	0,0000000E+000	2,0000001E-002	0,000000000000000E+000	1,1533928E+000
1	1	0	1	0	0	1	1,249374924781978E+004	2,785934594635748E-005	4,736166827928068E-004	2,0000001E-002	1,3580865E+001	13	4,736166827928068E-004	0	1,2417249E+001	2,7241488E-004	6,431888406462821E-006	0,000000000000000E+000	5,559753036967954E+002	0,000000000000000E+000	2,005872932423231E-002	0,000000000000000E+000	4,736166827928068E-004	4,736166827928068E-004	0,0000000E+000	0,0000000E+000	2,0000001E-002	0,000000000000000E+000	1,1636162E+000
1	1	0	1	0	0	1	1,251374924757764E+004	2,785922417427517E-005	5,850537002531605E-004	2,0000001E-002	1,3579422E+001	13	5,850537002531603E-004	0	1,2407948E+001	2,7238476E-004	7,945268241690454E-006	0,000000000000000E+000	6,871137283028984E+002	0,000000000000000E+000	2,005864164833198E-002	0,000000000000000E+000	5,850537002531603E-004	5,850537002531603E-004	0,0000000E+000	0,0000000E+000	2,0000001E-002	0,000000000000000E+000	1,1714745E+000
1	1	0	1	0	0	1	1,253374924733549E+004	2,785976275687830E-005	6,964920483117716E-004	2,0000001E-002	1,3581387E+001	13	6,964920483117714E-004	0	1,2403337E+001	2,7242943E-004	9,458629269523043E-006	0,000000000000000E+000	8,174680786018529E+002	0,000000000000000E+000	2,005902942781093E-002	0,000000000000000E+000	6,964920483117714E-004	6,964920483117714E-004	0,0000000E+000	0,0000000E+000	2,0000001E-002	0,000000000000000E+000	1,1780491E+000
1	1	0	1	0	0	1	1,255374924709335E+004	2,786062548630353E-005	8,079343515161631E-004	2,0000001E-002	1,3580424E+001	13	8,079343515161631E-004	0	1,2396563E+001	2,7241858E-004	1,097207977183352E-005	0,000000000000000E+000	9,485647522356078E+002	0,000000000000000E+000	2,005965059300462E-002	0,000000000000000E+000	8,079343515161631E-004	8,079343515161631E-004	0,0000000E+000	0,0000000E+000	2,0000001E-002	0,000000000000000E+000	1,1838617E+000
1	1	0	1	0	0	1	1,257374924685121E+004	2,786020152001745E-005	9,193756492332452E-004	2,0000001E-002	1,3579742E+001	13	9,193756492332451E-004	0	1,2390829E+001	2,7240074E-004	1,248557244243189E-005	0,000000000000000E+000	1,079643798628606E+003	0,000000000000000E+000	2,005934533727494E-002	0,000000000000000E+000	9,193756492332451E-004	9,193756492332451E-004	0,0000000E+000	0,0000000E+000	2,0000001E-002	0,000000000000000E+000	1,1889133E+000
1	1	0	1	0	0	1	1,259374924660906E+004	2,786031668250345E-005	1,030818283077433E-003	2,0000001E-002	1,3579983E+001	13	1,030818283077433E-003	0	1,2386700E+001	2,7240670E-004	1,399892351941370E-005	0,000000000000000E+000	1,210418535732285E+003	0,000000000000000E+000	2,005942825426587E-002	0,000000000000000E+000	1,030818283077433E-003	1,030818283077433E-003	0,0000000E+000	0,0000000E+000	2,0000001E-002	0,000000000000000E+000	1,1932831E+000
1	1	0	1	0	0	1	1,261374924636692E+004	2,785957631116940E-005	1,142259882305852E-003	2,0000001E-002	1,3580945E+001	13	1,142259882305852E-003	0	1,2383693E+001	2,7241875E-004	1,551238454848171E-005	0,000000000000000E+000	1,340855842409060E+003	0,000000000000000E+000	2,005889518689889E-002	0,000000000000000E+000	1,142259882305852E-003	1,142259882305852E-003	0,0000000E+000	0,0000000E+000	2,0000001E-002	0,000000000000000E+000	1,1972523E+000
1	1	0	1	0	0	1	1,262743344620125E+004	1,114166548682584E-009	1,218507417963714E-003	2,0000001E-002	1,3582229E+001	13	1,218507417963714E-003	0	1,2382370E+001	2,7239157E-004	1,654794759654501E-005	0,000000000000000E+000	1,429761508118568E+003	0,000000000000000E+000	2,005499838291838E-002	0,000000000000000E+000	1,218507417963714E-003	1,218507417963714E-003	0,0000000E+000	0,0000000E+000	2,0000001E-002	0,000000000000000E+000	1,1998587E+000
2	1	0	0	0	0	1	1,298743464184264E+004	5,669430568532812E-004	3,002401300510702E-003	1,1999834E+000	1,3579983E+001	13	3,002401300510702E-003	0	1,2383573E+001	2,3097231E-004	4,077386112316499E-005	0,000000000000000E+000	3,525511960260684E+003	0,000000000000000E+000	1,700829191152112E-002	0,000000000000000E+000	3,002401300510702E-003	3,002401300510702E-003	0,0000000E+000	1,1999834E+000	0,0000000E+000	0,000000000000000E+000	1,1964102E+000
2	1	0	0	0	0	1	1,346743463603119E+004	5,114338103058334E-004	5,121304691820664E-003	1,1999834E+000	1,3579582E+001	13	5,121304691820664E-003	0	1,2382852E+001	2,0835172E-004	6,954991224386028E-005	0,000000000000000E+000	6,014379261550482E+003	0,000000000000000E+000	1,534301449493585E-002	0,000000000000000E+000	5,121304691820664E-003	5,121304691820664E-003	0,0000000E+000	1,1999834E+000	0,0000000E+000	0,000000000000000E+000	1,1967306E+000
2	1	0	0	0	0	1	1,394743463021974E+004	4,705593441133387E-004	7,063229821240943E-003	1,1999834E+000	1,3579662E+001	13	7,063229821240944E-003	0	1,2382852E+001	1,9170111E-004	9,592073204449709E-005	0,000000000000000E+000	8,294728666395335E+003	0,000000000000000E+000	1,411678049431475E-002	0,000000000000000E+000	7,063229821240944E-003	7,063229821240944E-003	0,0000000E+000	1,1999834E+000	0,0000000E+000	0,000000000000000E+000	1,1968107E+000
2	1	0	0	0	0	1	1,442743462440828E+004	4,339190699798573E-004	8,852799785296640E-003	1,1999834E+000	1,3580985E+001	13	8,852799785296640E-003	0	1,2384174E+001	1,7679145E-004	1,202236638668506E-004	0,000000000000000E+000	1,039183242426395E+004	0,000000000000000E+000	1,301757225700198E-002	0,000000000000000E+000	8,852799785296640E-003	8,852799785296640E-003	0,0000000E+000	1,1999834E+000	0,0000000E+000	0,000000000000000E+000	1,1968107E+000
2	1	0	0	0	0	1	1,490743461859683E+004	4,002807567116494E-004	1,050309880992486E-002	1,1999834E+000	1,3579903E+001	13	1,050309880992486E-002	0	1,2383052E+001	1,6307321E-004	1,426343976374870E-004	0,000000000000000E+000	1,233338396019533E+004	0,000000000000000E+000	1,200842284673778E-002	0,000000000000000E+000	1,050309880992486E-002	1,050309880992486E-002	0,0000000E+000	1,1999834E+000	0,0000000E+000	0,000000000000000E+000	1,1968508E+000
2	1	0	0	0	0	1	1,538743461278538E+004	3,700152224275387E-004	1,202773110393776E-002	1,1999834E+000	1,3577698E+001	13	1,202773110393776E-002	0	1,2381047E+001	1,5071865E-004	1,633368344280500E-004	0,000000000000000E+000	1,413386596617183E+004	0,000000000000000E+000	1,110045680722154E-002	0,000000000000000E+000	1,202773110393776E-002	1,202773110393776E-002	0,0000000E+000	1,1999834E+000	0,0000000E+000	0,000000000000000E+000	1,1966505E+000
2	1	0	0	0	0	1	1,586743460697393E+004	3,426554855998709E-004	1,343817460373194E-002	1,1999834E+000	1,3578339E+001	13	1,343817460373194E-002	0	1,2381528E+001	1,3958076E-004	1,824888672936765E-004	0,000000000000000E+000	1,578798469107227E+004	0,000000000000000E+000	1,027966469245402E-002	0,000000000000000E+000	1,343817460373194E-002	1,343817460373194E-002	0,0000000E+000	1,1999834E+000	0,0000000E+000	0,000000000000000E+000	1,1968107E+000
3	1	0	1	0	0	1	1,604188520486181E+004	0,000000000000000E+000	1,375915649469404E-002	0,0000000E+000	1,4684354E+001	14	1,375915538429293E-002	0	1,3578070E+001	0,0000000E+000	1,868470216035675E-004	0,000000000000000E+000	1,616931965250759E+004	0,000000000000000E+000	0,000000000000000E+000	0,000000000000000E+000	1,375915538429293E-002	1,375915538429293E-002	0,0000000E+000	0,0000000E+000	0,0000000E+000	0,000000000000000E+000	1,1062841E+000
3	1	0	1	0	0	1	1,604193480486122E+004	0,000000000000000E+000	1,375915649469404E-002	0,0000000E+000	1,4683953E+001	14	1,375915538429293E-002	0	1,3577909E+001	0,0000000E+000	1,868470216035675E-004	0,000000000000000E+000	1,616931965250759E+004	0,000000000000000E+000	0,000000000000000E+000	0,000000000000000E+000	1,375915538429293E-002	1,375915538429293E-002	0,0000000E+000	0,0000000E+000	0,0000000E+000	0,000000000000000E+000	1,1060438E+000