File: SAMPLE-MPT/20220309_SSB_Cell_03_Form01/20220309_(Form02C)EIS_charging_10bis16V_step_01V+(1C+EIS)50cycle_10_GCPL6_C08.mpt
EC-Lab ASCII FILE
Nb header lines : 76

Galvanostatic Cycling with Potential Limitation 6

Run on channel : 8 (SN 14384)
User :
CE vs. WE compliance from -10 V to 10 V
Electrode connection : standard
Potential control : Ewe-Ece
Ecell ctrl range : min = 0,00 V, max = 5,00 V
Safety Limits :
	Do not start on E overload
Acquisition started on : 03/09/2022 13:55:05.456
Technique started on : 03/09/2022 20:08:57.843
Loaded Setting File :  C:\DATA\x_Data_VMP3\Extern\InES\Binbin\001_Testing_Profiles\20220308_(Form02C)EIS_charging_10bis16V_step_01V+(1C+EIS)50cycle.mps
Saved on :
	File : 20220309_(Form02C)EIS_charging_10bis16V_step_01V+(1C+EIS)50cycle_10_GCPL6_C08.mpr
	Directory : C:\DATA\x_Data_VMP3\Extern\InES\Binbin\20220309_SSB_Cell_03_Form01\
	Host : 134.169.45.143
Device : VMP3 (SN 0787)
Address : 134.169.45.150
EC-Lab for windows v11.42 (software)
Internet server v11.40 (firmware)
Command interpretor v11.40 (firmware)
Electrode material :
Initial state :
Electrolyte :
Comments :
Electrode surface area : 0,000 cm²
Characteristic mass : 0,001 g
Equivalent Weight : 0,000 g/eq.
Density : 0,000 g/cm3
Volume (V) : 0,001 cm³
Record Ece
Record Power
Cycle Definition : Charge/Discharge alternance
Ns                  0                   1
Set I/C             I                   I
Is                  0,000               20,000
unit Is             mA                  µA
vs.                 <None>              <None>
N                   1,00                1,00
I sign              > 0                 > 0
t1 (h:m:s)          0:00:0,0000         20:00:0,0000
I Range             100 µA              100 µA
Bandwidth           5                   5
dE1 (mV)            0,00                0,00
dt1 (s)             0,0000              5,0000
EM (V)              0,000               1,400
tM (h:m:s)          0:00:0,0000         10:00:0,0000
Im                  0,000               10,000
unit Im             mA                  µA
dI/dt               0,000               0,000
dunit dI/dt         mA/s                mA/s
E range min (V)     0,000               0,000
E range max (V)     5,000               5,000
dq                  0,000               1,000
unit dq             mA.h                mA.h
dtq (s)             0,0000              120,0000
dQM                 0,000               0,000
unit dQM            mA.h                mA.h
dxM                 0,000               0,000
delta SoC (%)       pass                pass
tR (h:m:s)          0:00:10,0000        0:01:0,0000
dER/dt (mV/h)       0,0                 0,1
dER (mV)            0,00                0,00
dtR (s)             1,0000              120,0000
EL (V)              pass                pass
goto Ns'            0                   0
nc cycles           0                   0

Number of loops : 1
Loop 0 from point number 0 to 321

mode	ox/red	error	control changes	Ns changes	counter inc.	Ns	time/s	dq/mA.h	(Q-Qo)/mA.h	control/V/mA	Ewe/V	I Range	Q charge/discharge/mA.h	half cycle	Ece/V	P/W	Energy charge/W.h	Energy discharge/W.h	Capacitance charge/µF	Capacitance discharge/µF	<I>/mA	Q discharge/mA.h	Q charge/mA.h	Capacity/mA.h	Efficiency/%	control/V	control/mA	cycle number	 Ecell/V
3	1	0	0	0	0	0	2,243238748457487E+004	0,000000000000000E+000	0,000000000000000E+000	0,0000000E+000	1,0514146E+001	14	0,000000000000000E+000	0	1,3590157E+001	0,0000000E+000	0,000000000000000E+000	0,000000000000000E+000	0,000000000000000E+000	0,000000000000000E+000	0,000000000000000E+000	0,000000000000000E+000	0,000000000000000E+000	0,000000000000000E+000	0,0000000E+000	0,0000000E+000	0,0000000E+000	0,000000000000000E+000	-3,0760107E+000
1	1	0	1	0	0	1	2,246238768421166E+004	2,785691023462762E-005	1,114286473230976E-004	2,0000001E-002	1,3576494E+001	13	1,114286473230976E-004	0	1,2279016E+001	2,7230341E-004	1,512792428252726E-006	0,000000000000000E+000	1,309919977900666E+002	0,000000000000000E+000	2,005697561176557E-002	0,000000000000000E+000	1,114286473230976E-004	1,114286473230976E-004	0,0000000E+000	0,0000000E+000	2,0000001E-002	0,000000000000000E+000	1,2974777E+000
1	1	0	1	0	0	1	2,253738768330362E+004	2,785620338738792E-005	5,292699874212138E-004	2,0000001E-002	1,3575893E+001	13	5,292699874212138E-004	0	1,2253759E+001	2,7228447E-004	7,185672391386337E-006	0,000000000000000E+000	6,223151722996354E+002	0,000000000000000E+000	2,005646668174683E-002	0,000000000000000E+000	5,292699874212138E-004	5,292699874212138E-004	0,0000000E+000	0,0000000E+000	2,0000001E-002	0,000000000000000E+000	1,3221340E+000
1	1	0	1	0	0	1	2,261238768239558E+004	2,785615825104631E-005	9,471105832005334E-004	2,0000001E-002	1,3578419E+001	13	9,471105832005334E-004	0	1,2246464E+001	2,7233467E-004	1,285878123441582E-005	0,000000000000000E+000	1,112694016632509E+003	0,000000000000000E+000	2,005643418358047E-002	0,000000000000000E+000	9,471105832005334E-004	9,471105832005334E-004	0,0000000E+000	0,0000000E+000	2,0000001E-002	0,000000000000000E+000	1,3319550E+000
1	1	0	1	0	0	1	2,268738768148754E+004	2,785626771787388E-005	1,364951524886924E-003	2,0000001E-002	1,3576936E+001	13	1,364951524886924E-003	0	1,2237483E+001	2,7230597E-004	1,853172613613376E-005	0,000000000000000E+000	1,604362565754607E+003	0,000000000000000E+000	2,005651299969728E-002	0,000000000000000E+000	1,364951524886924E-003	1,364951524886924E-003	0,0000000E+000	0,0000000E+000	2,0000001E-002	0,000000000000000E+000	1,3394527E+000
1	1	0	1	0	0	1	2,276238768057950E+004	2,785706436023530E-005	1,782808885654848E-003	2,0000001E-002	1,3577096E+001	13	1,782808885654849E-003	0	1,2231509E+001	2,7231697E-004	2,420490062771494E-005	0,000000000000000E+000	2,095402049329057E+003	0,000000000000000E+000	2,005708658220444E-002	0,000000000000000E+000	1,782808885654849E-003	1,782808885654849E-003	0,0000000E+000	0,0000000E+000	2,0000001E-002	0,000000000000000E+000	1,3455868E+000
1	1	0	1	0	0	1	2,283738767967146E+004	2,785615115840402E-005	2,200658800636832E-003	2,0000001E-002	1,3577296E+001	13	2,200658800636832E-003	0	1,2226137E+001	2,7231206E-004	2,987817061561084E-005	0,000000000000000E+000	2,586347593991817E+003	0,000000000000000E+000	2,005642907687796E-002	0,000000000000000E+000	2,200658800636832E-003	2,200658800636832E-003	0,0000000E+000	0,0000000E+000	2,0000001E-002	0,000000000000000E+000	1,3511591E+000
1	1	0	1	0	0	1	2,291238767876342E+004	2,785639046370569E-005	2,618506655932921E-003	2,0000001E-002	1,3575853E+001	13	2,618506655932921E-003	0	1,2220003E+001	2,7228548E-004	3,555126745520534E-005	0,000000000000000E+000	3,078878035114101E+003	0,000000000000000E+000	2,005660137669725E-002	0,000000000000000E+000	2,618506655932921E-003	2,618506655932921E-003	0,0000000E+000	0,0000000E+000	2,0000001E-002	0,000000000000000E+000	1,3558502E+000
1	1	0	1	0	0	1	2,298738767785538E+004	2,785673290263447E-005	3,036353380638692E-003	2,0000001E-002	1,3576534E+001	13	3,036353380638692E-003	0	1,2216035E+001	2,7230248E-004	4,122426066541681E-005	0,000000000000000E+000	3,569394430352690E+003	0,000000000000000E+000	2,005684793272896E-002	0,000000000000000E+000	3,036353380638692E-003	3,036353380638692E-003	0,0000000E+000	0,0000000E+000	2,0000001E-002	0,000000000000000E+000	1,3604994E+000
1	1	0	1	0	0	1	2,306238767694734E+004	2,785576446157777E-005	3,454202103325787E-003	2,0000001E-002	1,3578540E+001	13	3,454202103325786E-003	0	1,2213108E+001	2,7233324E-004	4,689755017084699E-005	0,000000000000000E+000	4,057940194167582E+003	0,000000000000000E+000	2,005615065515969E-002	0,000000000000000E+000	3,454202103325786E-003	3,454202103325786E-003	0,0000000E+000	0,0000000E+000	2,0000001E-002	0,000000000000000E+000	1,3654318E+000
1	1	0	1	0	0	1	2,313738767603930E+004	2,785600175356699E-005	3,872036363070210E-003	2,0000001E-002	1,3577256E+001	13	3,872036363070209E-003	0	1,2208337E+001	2,7230982E-004	5,257039537494342E-005	0,000000000000000E+000	4,550711305566339E+003	0,000000000000000E+000	2,005632150539400E-002	0,000000000000000E+000	3,872036363070209E-003	3,872036363070209E-003	0,0000000E+000	0,0000000E+000	2,0000001E-002	0,000000000000000E+000	1,3689194E+000
1	1	0	1	0	0	1	2,321238767513126E+004	2,785704529833876E-005	4,289887703982286E-003	2,0000001E-002	1,3578259E+001	13	4,289887703982286E-003	0	1,2205852E+001	2,7234011E-004	5,824375725189293E-005	0,000000000000000E+000	5,040152707002540E+003	0,000000000000000E+000	2,005707285763877E-002	0,000000000000000E+000	4,289887703982286E-003	4,289887703982286E-003	0,0000000E+000	0,0000000E+000	2,0000001E-002	0,000000000000000E+000	1,3724070E+000
1	1	0	1	0	0	1	2,328738767422322E+004	2,785805676225573E-005	4,707749290917896E-003	2,0000001E-002	1,3578460E+001	13	4,707749290917896E-003	0	1,2202324E+001	2,7235405E-004	6,391735550448799E-005	0,000000000000000E+000	5,530731531985801E+003	0,000000000000000E+000	2,005780111166780E-002	0,000000000000000E+000	4,707749290917896E-003	4,707749290917896E-003	0,0000000E+000	0,0000000E+000	2,0000001E-002	0,000000000000000E+000	1,3761358E+000
1	1	0	1	0	0	1	2,336238767331518E+004	2,785696336533874E-005	5,125612689583148E-003	2,0000001E-002	1,3578419E+001	13	5,125612689583147E-003	0	1,2199037E+001	2,7234253E-004	6,959106426725675E-005	0,000000000000000E+000	6,021724044094302E+003	0,000000000000000E+000	2,005701386587804E-002	0,000000000000000E+000	5,125612689583147E-003	5,125612689583147E-003	0,0000000E+000	0,0000000E+000	2,0000001E-002	0,000000000000000E+000	1,3793821E+000
1	1	0	1	0	0	1	2,343738767240715E+004	2,785696072586708E-005	5,543467399854523E-003	2,0000001E-002	1,3576575E+001	13	5,543467399854523E-003	0	1,2193745E+001	2,7230554E-004	7,526453891675580E-005	0,000000000000000E+000	6,516552661216397E+003	0,000000000000000E+000	2,005701196545842E-002	0,000000000000000E+000	5,543467399854523E-003	5,543467399854523E-003	0,0000000E+000	0,0000000E+000	2,0000001E-002	0,000000000000000E+000	1,3828306E+000
1	1	0	1	0	0	1	2,351238767149911E+004	2,785692405690335E-005	5,961323177974878E-003	2,0000001E-002	1,3578419E+001	13	5,961323177974876E-003	0	1,2192341E+001	2,7234215E-004	8,093798561094445E-005	0,000000000000000E+000	7,003541876736577E+003	0,000000000000000E+000	2,005698556380422E-002	0,000000000000000E+000	5,961323177974876E-003	5,961323177974876E-003	0,0000000E+000	0,0000000E+000	2,0000001E-002	0,000000000000000E+000	1,3860779E+000
1	1	0	1	0	0	1	2,358738767059107E+004	2,785856924485415E-005	6,379185187103537E-003	2,0000001E-002	1,3577296E+001	13	6,379185187103535E-003	0	1,2188453E+001	2,7233572E-004	8,661143314357246E-005	0,000000000000000E+000	7,497205044016367E+003	0,000000000000000E+000	2,005817009914313E-002	0,000000000000000E+000	6,379185187103535E-003	6,379185187103535E-003	0,0000000E+000	0,0000000E+000	2,0000001E-002	0,000000000000000E+000	1,3888435E+000
1	1	0	1	0	0	1	2,366238766968303E+004	2,785709525779304E-005	6,797047563572725E-003	2,0000001E-002	1,3577136E+001	13	6,797047563572723E-003	0	1,2185044E+001	2,7231808E-004	9,228486446082562E-005	0,000000000000000E+000	7,988720081423745E+003	0,000000000000000E+000	2,005710882844628E-002	0,000000000000000E+000	6,797047563572723E-003	6,797047563572723E-003	0,0000000E+000	0,0000000E+000	2,0000001E-002	0,000000000000000E+000	1,3920918E+000
1	1	0	1	0	0	1	2,373738766877499E+004	2,785709813216494E-005	7,214902717574189E-003	2,0000001E-002	1,3578820E+001	13	7,214902717574188E-003	0	1,2183962E+001	2,7235190E-004	9,795835074002321E-005	0,000000000000000E+000	8,475174385394772E+003	0,000000000000000E+000	2,005711089799408E-002	0,000000000000000E+000	7,214902717574188E-003	7,214902717574188E-003	0,0000000E+000	0,0000000E+000	2,0000001E-002	0,000000000000000E+000	1,3948584E+000
1	1	0	1	0	0	1	2,381238766786695E+004	2,785730087074141E-005	7,632762280123412E-003	2,0000001E-002	1,3576294E+001	13	7,632762280123412E-003	0	1,2178790E+001	2,7230321E-004	1,036317181619671E-004	0,000000000000000E+000	8,973421063695223E+003	0,000000000000000E+000	2,005725686977090E-002	0,000000000000000E+000	7,632762280123412E-003	7,632762280123412E-003	0,0000000E+000	0,0000000E+000	2,0000001E-002	0,000000000000000E+000	1,3975039E+000
1	1	0	1	0	0	1	2,387877906706311E+004	1,113989700873693E-009	8,002666083652837E-003	2,0000001E-002	1,3578419E+001	13	8,002666083652835E-003	0	1,2178630E+001	2,7227192E-004	1,086540209633041E-004	0,000000000000000E+000	9,401772956963203E+003	0,000000000000000E+000	2,005181512227793E-002	0,000000000000000E+000	8,002666083652835E-003	8,002666083652835E-003	0,0000000E+000	0,0000000E+000	2,0000001E-002	0,000000000000000E+000	1,3997889E+000
2	1	0	0	0	0	1	2,555878024672304E+004	3,489295962785578E-004	1,423311997951738E-002	1,4000391E+000	1,3576174E+001	13	1,423311997951738E-002	0	1,2179924E+001	1,4211386E-004	1,932437914327618E-004	0,000000000000000E+000	1,673375719533628E+004	0,000000000000000E+000	1,046788801509348E-002	0,000000000000000E+000	1,423311997951738E-002	1,423311997951738E-002	0,0000000E+000	1,4000391E+000	0,0000000E+000	0,000000000000000E+000	1,3962498E+000
3	1	0	1	0	0	1	2,575005044440727E+004	0,000000000000000E+000	1,460376490986787E-002	0,0000000E+000	1,4955641E+001	14	1,460376379738070E-002	0	1,3578230E+001	0,0000000E+000	1,982757938375098E-004	0,000000000000000E+000	1,716075456748133E+004	0,000000000000000E+000	0,000000000000000E+000	0,000000000000000E+000	1,460376379738070E-002	1,460376379738070E-002	0,0000000E+000	0,0000000E+000	0,0000000E+000	0,000000000000000E+000	1,3774109E+000