File: SAMPLE-MPT/20220309_SSB_Cell_03_Form01/20220309_(Form02C)EIS_charging_10bis16V_step_01V+(1C+EIS)50cycle_02_GCPL6_C08.mpt
EC-Lab ASCII FILE
Nb header lines : 76

Galvanostatic Cycling with Potential Limitation 6

Run on channel : 8 (SN 14384)
User :
CE vs. WE compliance from -10 V to 10 V
Electrode connection : standard
Potential control : Ewe-Ece
Ecell ctrl range : min = 0,00 V, max = 5,00 V
Safety Limits :
	Do not start on E overload
Acquisition started on : 03/09/2022 13:55:05.456
Technique started on : 03/09/2022 14:17:03.042
Loaded Setting File :  C:\DATA\x_Data_VMP3\Extern\InES\Binbin\001_Testing_Profiles\20220308_(Form02C)EIS_charging_10bis16V_step_01V+(1C+EIS)50cycle.mps
Saved on :
	File : 20220309_(Form02C)EIS_charging_10bis16V_step_01V+(1C+EIS)50cycle_02_GCPL6_C08.mpr
	Directory : C:\DATA\x_Data_VMP3\Extern\InES\Binbin\20220309_SSB_Cell_03_Form01\
	Host : 134.169.45.143
Device : VMP3 (SN 0787)
Address : 134.169.45.150
EC-Lab for windows v11.42 (software)
Internet server v11.40 (firmware)
Command interpretor v11.40 (firmware)
Electrode material :
Initial state :
Electrolyte :
Comments :
Electrode surface area : 0,000 cm²
Characteristic mass : 0,001 g
Equivalent Weight : 0,000 g/eq.
Density : 0,000 g/cm3
Volume (V) : 0,001 cm³
Record Ece
Record Power
Cycle Definition : Charge/Discharge alternance
Ns                  0                   1
Set I/C             I                   I
Is                  0,000               20,000
unit Is             mA                  µA
vs.                 <None>              <None>
N                   1,00                1,00
I sign              < 0                 > 0
t1 (h:m:s)          0:00:0,0000         20:00:0,0000
I Range             100 µA              100 µA
Bandwidth           5                   5
dE1 (mV)            0,00                0,00
dt1 (s)             0,0000              5,0000
EM (V)              0,000               1,000
tM (h:m:s)          0:00:0,0000         10:00:0,0000
Im                  0,000               10,000
unit Im             mA                  µA
dI/dt               0,000               0,000
dunit dI/dt         mA/s                mA/s
E range min (V)     0,000               0,000
E range max (V)     5,000               5,000
dq                  0,000               1,000
unit dq             mA.h                mA.h
dtq (s)             0,0000              120,0000
dQM                 0,000               0,000
unit dQM            mA.h                mA.h
dxM                 0,000               0,000
delta SoC (%)       pass                pass
tR (h:m:s)          0:00:10,0000        0:01:0,0000
dER/dt (mV/h)       0,0                 0,1
dER (mV)            0,00                0,00
dtR (s)             1,0000              120,0000
EL (V)              pass                pass
goto Ns'            0                   0
nc cycles           0                   0

Number of loops : 1
Loop 0 from point number 0 to 80

mode	ox/red	error	control changes	Ns changes	counter inc.	Ns	time/s	dq/mA.h	(Q-Qo)/mA.h	control/V/mA	Ewe/V	I Range	Q charge/discharge/mA.h	half cycle	Ece/V	P/W	Energy charge/W.h	Energy discharge/W.h	Capacitance charge/µF	Capacitance discharge/µF	<I>/mA	Q discharge/mA.h	Q charge/mA.h	Capacity/mA.h	Efficiency/%	control/V	control/mA	cycle number	 Ecell/V
3	0	0	0	0	0	0	1,317586462581967E+003	0,000000000000000E+000	0,000000000000000E+000	0,0000000E+000	1,0514146E+001	14	0,000000000000000E+000	0	1,3590477E+001	0,0000000E+000	0,000000000000000E+000	0,000000000000000E+000	0,000000000000000E+000	0,000000000000000E+000	0,000000000000000E+000	0,000000000000000E+000	0,000000000000000E+000	0,000000000000000E+000	0,0000000E+000	0,0000000E+000	0,0000000E+000	0,000000000000000E+000	-3,0763311E+000
3	0	0	0	0	0	0	1,321586462480918E+003	0,000000000000000E+000	0,000000000000000E+000	0,0000000E+000	1,3847536E+001	14	0,000000000000000E+000	0	1,3576987E+001	0,0000000E+000	0,000000000000000E+000	0,000000000000000E+000	0,000000000000000E+000	0,000000000000000E+000	0,000000000000000E+000	0,000000000000000E+000	0,000000000000000E+000	0,000000000000000E+000	0,0000000E+000	0,0000000E+000	0,0000000E+000	0,000000000000000E+000	2,7054882E-001
3	0	0	0	0	0	0	1,325586462379870E+003	0,000000000000000E+000	0,000000000000000E+000	0,0000000E+000	1,3836991E+001	14	0,000000000000000E+000	0	1,3576987E+001	0,0000000E+000	0,000000000000000E+000	0,000000000000000E+000	0,000000000000000E+000	0,000000000000000E+000	0,000000000000000E+000	0,000000000000000E+000	0,000000000000000E+000	0,000000000000000E+000	0,0000000E+000	0,0000000E+000	0,0000000E+000	0,000000000000000E+000	2,6000404E-001
1	1	0	1	0	0	1	1,332586662203030E+003	2,785794585073988E-005	2,786015936121759E-005	2,0000001E-002	1,3577096E+001	13	2,786015936121759E-005	0	1,2720053E+001	2,7232562E-004	3,782532779439276E-007	0,000000000000000E+000	3,274508865749026E+001	0,000000000000000E+000	2,005772151923338E-002	0,000000000000000E+000	2,786015936121759E-005	2,786015936121759E-005	0,0000000E+000	0,0000000E+000	2,0000001E-002	0,000000000000000E+000	8,5704327E-001
1	1	0	1	0	0	1	1,352586661697787E+003	2,785806368436250E-005	1,392930736346170E-004	2,0000001E-002	1,3578178E+001	13	1,392930736346170E-004	0	1,2638589E+001	2,7234846E-004	1,891237801054561E-006	0,000000000000000E+000	1,636585304315585E+002	0,000000000000000E+000	2,005780635944381E-002	0,000000000000000E+000	1,392930736346170E-004	1,392930736346170E-004	0,0000000E+000	0,0000000E+000	2,0000001E-002	0,000000000000000E+000	9,3958950E-001
1	1	0	1	0	0	1	1,372586661192545E+003	2,785799615778443E-005	2,507249070038605E-004	2,0000001E-002	1,3577938E+001	13	2,507249070038605E-004	0	1,2608521E+001	2,7234299E-004	3,404323800951465E-006	0,000000000000000E+000	2,946053772051177E+002	0,000000000000000E+000	2,005775774030637E-002	0,000000000000000E+000	2,507249070038605E-004	2,507249070038605E-004	0,0000000E+000	0,0000000E+000	2,0000001E-002	0,000000000000000E+000	9,6941757E-001
1	1	0	1	0	0	1	1,392586660687302E+003	2,785774736416837E-005	3,621566641792241E-004	2,0000001E-002	1,3577296E+001	13	3,621566641792241E-004	0	1,2589077E+001	2,7232768E-004	4,917373033369221E-006	0,000000000000000E+000	4,256284603396877E+002	0,000000000000000E+000	2,005757860889828E-002	0,000000000000000E+000	3,621566641792241E-004	3,621566641792241E-004	0,0000000E+000	0,0000000E+000	2,0000001E-002	0,000000000000000E+000	9,8821926E-001
1	1	0	1	0	0	1	1,410568460233044E+003	1,661335377602114E-005	4,623437427449972E-004	2,0000001E-002	1,3578500E+001	13	4,623437427449972E-004	0	1,2578293E+001	2,7235359E-004	6,277696202970206E-006	0,000000000000000E+000	5,431609745193219E+002	0,000000000000000E+000	2,005770846621341E-002	0,000000000000000E+000	4,623437427449972E-004	4,623437427449972E-004	0,0000000E+000	0,0000000E+000	2,0000001E-002	0,000000000000000E+000	1,0002069E+000
2	1	0	0	0	0	1	1,650570254170088E+003	5,995333814733765E-004	1,686626173951456E-003	1,0000278E+000	1,3577858E+001	13	1,686626173951456E-003	0	1,2580978E+001	2,4421097E-004	2,290022076732563E-005	0,000000000000000E+000	1,981861868312208E+003	0,000000000000000E+000	1,798597192194605E-002	0,000000000000000E+000	1,686626173951456E-003	1,686626173951456E-003	0,0000000E+000	1,0000278E+000	0,0000000E+000	0,000000000000000E+000	9,9687958E-001
2	1	0	0	0	0	1	2,130571042044248E+003	6,202578224792248E-004	4,144283805665043E-003	1,0000278E+000	1,3576534E+001	13	4,144283805665042E-003	0	1,2579415E+001	2,5262812E-004	5,626958393930998E-005	0,000000000000000E+000	4,871825403481216E+003	0,000000000000000E+000	1,860770413160745E-002	0,000000000000000E+000	4,144283805665042E-003	4,144283805665042E-003	0,0000000E+000	1,0000278E+000	0,0000000E+000	0,000000000000000E+000	9,9711895E-001
2	1	0	0	0	0	1	2,610571829918408E+003	6,022085637488506E-004	6,586647369081672E-003	1,0000278E+000	1,3578660E+001	13	6,586647369081672E-003	0	1,2581981E+001	2,4531517E-004	8,943272875459578E-005	0,000000000000000E+000	7,737582301621677E+003	0,000000000000000E+000	1,806622725847880E-002	0,000000000000000E+000	6,586647369081672E-003	6,586647369081672E-003	0,0000000E+000	1,0000278E+000	0,0000000E+000	0,000000000000000E+000	9,9667931E-001
2	1	0	0	0	0	1	3,090572617792568E+003	5,738542044417312E-004	8,925770308342762E-003	1,0000278E+000	1,3578580E+001	13	8,925770308342762E-003	0	1,2581620E+001	2,3376338E-004	1,211937972505436E-004	0,000000000000000E+000	1,048571206620094E+004	0,000000000000000E+000	1,721559787549212E-002	0,000000000000000E+000	8,925770308342762E-003	8,925770308342762E-003	0,0000000E+000	1,0000278E+000	0,0000000E+000	0,000000000000000E+000	9,9695969E-001
2	1	0	0	0	0	1	3,570573405666728E+003	5,430724033961694E-004	1,114450562082345E-002	1,0000278E+000	1,3579742E+001	13	1,114450562082345E-002	0	1,2582903E+001	2,2124314E-004	1,513235680322265E-004	0,000000000000000E+000	1,308724719034965E+004	0,000000000000000E+000	1,629214535988438E-002	0,000000000000000E+000	1,114450562082345E-002	1,114450562082345E-002	0,0000000E+000	1,0000278E+000	0,0000000E+000	0,000000000000000E+000	9,9683952E-001
2	1	0	0	0	0	1	4,050574193540888E+003	5,118154774648655E-004	1,323859758680190E-002	1,0000278E+000	1,3579061E+001	13	1,323859758680190E-002	0	1,2582101E+001	2,0849885E-004	1,797599759331188E-004	0,000000000000000E+000	1,554984589296962E+004	0,000000000000000E+000	1,535443912110050E-002	0,000000000000000E+000	1,323859758680190E-002	1,323859758680190E-002	0,0000000E+000	1,0000278E+000	0,0000000E+000	0,000000000000000E+000	9,9695969E-001
2	1	0	0	0	0	1	4,530574387131841E+003	4,803294403396754E-004	1,520748140267298E-002	1,0000278E+000	1,3579943E+001	13	1,520748139310887E-002	0	1,2583023E+001	1,9568538E-004	2,064974464849749E-004	0,000000000000000E+000	1,785732573163827E+004	0,000000000000000E+000	1,440988338465351E-002	0,000000000000000E+000	1,520748139310887E-002	1,520748139310887E-002	0,0000000E+000	1,0000278E+000	0,0000000E+000	0,000000000000000E+000	9,9691963E-001
2	1	0	0	0	0	1	5,010574381320388E+003	4,484295520830072E-004	1,704896736235084E-002	1,0000278E+000	1,3579502E+001	13	1,704896732536864E-002	0	1,2582502E+001	1,8268351E-004	2,315057616667247E-004	0,000000000000000E+000	2,002256092735423E+004	0,000000000000000E+000	1,345288672536692E-002	0,000000000000000E+000	1,704896732536864E-002	1,704896732536864E-002	0,0000000E+000	1,0000278E+000	0,0000000E+000	0,000000000000000E+000	9,9699974E-001
2	1	0	0	0	0	1	5,490574375508935E+003	4,171459716724543E-004	1,876408322230049E-002	1,0000278E+000	1,3580705E+001	13	1,876408315984983E-002	0	1,2583625E+001	1,6995409E-004	2,547993408982803E-004	0,000000000000000E+000	2,202817651525156E+004	0,000000000000000E+000	1,251437930168764E-002	0,000000000000000E+000	1,876408315984983E-002	1,876408315984983E-002	0,0000000E+000	1,0000278E+000	0,0000000E+000	0,000000000000000E+000	9,9707985E-001
2	1	0	0	0	0	1	5,970574369697497E+003	3,880121385828695E-004	2,035925562147082E-002	1,0000278E+000	1,3582629E+001	13	2,035925553538661E-002	0	1,2585670E+001	1,5810675E-004	2,764639449835303E-004	0,000000000000000E+000	2,388584571065976E+004	0,000000000000000E+000	1,164036429841823E-002	0,000000000000000E+000	2,035925553538661E-002	2,035925553538661E-002	0,0000000E+000	1,0000278E+000	0,0000000E+000	0,000000000000000E+000	9,9695969E-001
2	1	0	0	0	0	1	6,450574363886044E+003	3,601694216487101E-004	2,184060959063077E-002	1,0000278E+000	1,3582629E+001	13	2,184060948253103E-002	0	1,2585910E+001	1,4676143E-004	2,965843794843973E-004	0,000000000000000E+000	2,562379687311107E+004	0,000000000000000E+000	1,080508278028053E-002	0,000000000000000E+000	2,184060948253103E-002	2,184060948253103E-002	0,0000000E+000	1,0000278E+000	0,0000000E+000	0,000000000000000E+000	9,9671936E-001
2	1	0	0	0	0	1	6,878409558706160E+003	1,894491405340118E-004	2,307028075655063E-002	1,0000278E+000	1,3581987E+001	13	2,307028063014662E-002	0	1,2584867E+001	1,3655366E-004	3,132868093452457E-004	0,000000000000000E+000	2,707213181011073E+004	0,000000000000000E+000	1,005402673213548E-002	0,000000000000000E+000	2,307028063014662E-002	2,307028063014662E-002	0,0000000E+000	1,0000278E+000	0,0000000E+000	0,000000000000000E+000	9,9711990E-001
3	1	0	1	0	0	1	6,938409957979718E+003	0,000000000000000E+000	2,307028242057810E-002	0,0000000E+000	1,4459103E+001	14	2,307028118373759E-002	0	1,3582039E+001	0,0000000E+000	3,132868168639117E-004	0,000000000000000E+000	2,707531396367148E+004	0,000000000000000E+000	0,000000000000000E+000	0,000000000000000E+000	2,307028118373759E-002	2,307028118373759E-002	0,0000000E+000	0,0000000E+000	0,0000000E+000	0,000000000000000E+000	8,7706375E-001