File: SAMPLE-MPT/20220309_SSB_Cell_03_Form01/20220309_(Form02C)EIS_charging_10bis16V_step_01V+(1C+EIS)50cycle_12_GCPL6_C08.mpt
EC-Lab ASCII FILE
Nb header lines : 76

Galvanostatic Cycling with Potential Limitation 6

Run on channel : 8 (SN 14384)
User :
CE vs. WE compliance from -10 V to 10 V
Electrode connection : standard
Potential control : Ewe-Ece
Ecell ctrl range : min = 0,00 V, max = 5,00 V
Safety Limits :
	Do not start on E overload
Acquisition started on : 03/09/2022 13:55:05.456
Technique started on : 03/09/2022 21:26:13.354
Loaded Setting File :  C:\DATA\x_Data_VMP3\Extern\InES\Binbin\001_Testing_Profiles\20220308_(Form02C)EIS_charging_10bis16V_step_01V+(1C+EIS)50cycle.mps
Saved on :
	File : 20220309_(Form02C)EIS_charging_10bis16V_step_01V+(1C+EIS)50cycle_12_GCPL6_C08.mpr
	Directory : C:\DATA\x_Data_VMP3\Extern\InES\Binbin\20220309_SSB_Cell_03_Form01\
	Host : 134.169.45.143
Device : VMP3 (SN 0787)
Address : 134.169.45.150
EC-Lab for windows v11.42 (software)
Internet server v11.40 (firmware)
Command interpretor v11.40 (firmware)
Electrode material :
Initial state :
Electrolyte :
Comments :
Electrode surface area : 0,000 cm²
Characteristic mass : 0,001 g
Equivalent Weight : 0,000 g/eq.
Density : 0,000 g/cm3
Volume (V) : 0,001 cm³
Record Ece
Record Power
Cycle Definition : Charge/Discharge alternance
Ns                  0                   1
Set I/C             I                   I
Is                  0,000               20,000
unit Is             mA                  µA
vs.                 <None>              <None>
N                   1,00                1,00
I sign              > 0                 > 0
t1 (h:m:s)          0:00:0,0000         20:00:0,0000
I Range             100 µA              100 µA
Bandwidth           5                   5
dE1 (mV)            0,00                0,00
dt1 (s)             0,0000              5,0000
EM (V)              0,000               1,500
tM (h:m:s)          0:00:0,0000         10:00:0,0000
Im                  0,000               10,000
unit Im             mA                  µA
dI/dt               0,000               0,000
dunit dI/dt         mA/s                mA/s
E range min (V)     0,000               0,000
E range max (V)     5,000               5,000
dq                  0,000               1,000
unit dq             mA.h                mA.h
dtq (s)             0,0000              120,0000
dQM                 0,000               0,000
unit dQM            mA.h                mA.h
dxM                 0,000               0,000
delta SoC (%)       pass                pass
tR (h:m:s)          0:00:10,0000        0:01:0,0000
dER/dt (mV/h)       0,0                 0,1
dER (mV)            0,00                0,00
dtR (s)             1,0000              120,0000
EL (V)              pass                pass
goto Ns'            0                   0
nc cycles           0                   0

Number of loops : 1
Loop 0 from point number 0 to 760

mode	ox/red	error	control changes	Ns changes	counter inc.	Ns	time/s	dq/mA.h	(Q-Qo)/mA.h	control/V/mA	Ewe/V	I Range	Q charge/discharge/mA.h	half cycle	Ece/V	P/W	Energy charge/W.h	Energy discharge/W.h	Capacitance charge/µF	Capacitance discharge/µF	<I>/mA	Q discharge/mA.h	Q charge/mA.h	Capacity/mA.h	Efficiency/%	control/V	control/mA	cycle number	 Ecell/V
3	1	0	1	0	0	0	2,706789750700165E+004	0,000000000000000E+000	0,000000000000000E+000	0,0000000E+000	1,0514146E+001	14	0,000000000000000E+000	0	1,3589435E+001	0,0000000E+000	0,000000000000000E+000	0,000000000000000E+000	0,000000000000000E+000	0,000000000000000E+000	0,000000000000000E+000	0,000000000000000E+000	0,000000000000000E+000	0,000000000000000E+000	0,0000000E+000	0,0000000E+000	0,0000000E+000	0,000000000000000E+000	-3,0752888E+000
1	1	0	0	0	0	1	2,719289770548826E+004	2,785638667104973E-005	6,406953485495308E-004	2,0000001E-002	1,3577858E+001	13	6,406953485495306E-004	0	1,2196671E+001	2,7232565E-004	8,698698373129245E-006	0,000000000000000E+000	7,528459477896495E+002	0,000000000000000E+000	2,005659864598492E-002	0,000000000000000E+000	6,406953485495306E-004	6,406953485495306E-004	0,0000000E+000	0,0000000E+000	2,0000001E-002	0,000000000000000E+000	1,3811874E+000
1	1	0	0	0	0	1	2,736289770343003E+004	2,785669028013945E-005	1,587821117160842E-003	2,0000001E-002	1,3575773E+001	13	1,587821117160842E-003	0	1,2175503E+001	2,7228682E-004	2,155765119137808E-005	0,000000000000000E+000	1,867031907338725E+003	0,000000000000000E+000	2,005681724453217E-002	0,000000000000000E+000	1,587821117160842E-003	1,587821117160842E-003	0,0000000E+000	0,0000000E+000	2,0000001E-002	0,000000000000000E+000	1,4002705E+000
1	1	0	0	0	0	1	2,753289770137181E+004	2,785578174940828E-005	2,534925791187419E-003	2,0000001E-002	1,3577698E+001	13	2,534925791187418E-003	0	1,2164639E+001	2,7231654E-004	3,441651541766516E-005	0,000000000000000E+000	2,978807977766083E+003	0,000000000000000E+000	2,005616310239781E-002	0,000000000000000E+000	2,534925791187418E-003	2,534925791187418E-003	0,0000000E+000	0,0000000E+000	2,0000001E-002	0,000000000000000E+000	1,4130592E+000
1	1	0	0	0	0	1	2,770289769931359E+004	2,785670445476555E-005	3,482031707036516E-003	2,0000001E-002	1,3575773E+001	13	3,482031707036515E-003	0	1,2153172E+001	2,7228694E-004	4,727542203608902E-005	0,000000000000000E+000	4,094330418672573E+003	0,000000000000000E+000	2,005682745026309E-002	0,000000000000000E+000	3,482031707036515E-003	3,482031707036515E-003	0,0000000E+000	0,0000000E+000	2,0000001E-002	0,000000000000000E+000	1,4226007E+000
1	1	0	0	0	0	1	2,787289769725536E+004	2,785690814225624E-005	4,429145478320101E-003	2,0000001E-002	1,3577538E+001	13	4,429145478320102E-003	0	1,2146157E+001	2,7232431E-004	6,013439968406101E-005	0,000000000000000E+000	5,204990206606106E+003	0,000000000000000E+000	2,005697410525816E-002	0,000000000000000E+000	4,429145478320102E-003	4,429145478320102E-003	0,0000000E+000	0,0000000E+000	2,0000001E-002	0,000000000000000E+000	1,4313803E+000
1	1	0	0	0	0	1	2,804289769519714E+004	2,785633977709545E-005	5,376275603451042E-003	2,0000001E-002	1,3577818E+001	13	5,376275603451043E-003	0	1,2139462E+001	2,7232437E-004	7,299356363933468E-005	0,000000000000000E+000	6,317449047139219E+003	0,000000000000000E+000	2,005656488233743E-002	0,000000000000000E+000	5,376275603451043E-003	5,376275603451043E-003	0,0000000E+000	0,0000000E+000	2,0000001E-002	0,000000000000000E+000	1,4383564E+000
1	1	0	0	0	0	1	2,821289769313892E+004	2,785674222341428E-005	6,323400761055449E-003	2,0000001E-002	1,3576856E+001	13	6,323400761055449E-003	0	1,2132526E+001	2,7230903E-004	8,585274497191137E-005	0,000000000000000E+000	7,432712912512759E+003	0,000000000000000E+000	2,005685464369050E-002	0,000000000000000E+000	6,323400761055449E-003	6,323400761055449E-003	0,0000000E+000	0,0000000E+000	2,0000001E-002	0,000000000000000E+000	1,4443293E+000
1	1	0	0	0	0	1	2,838289769108070E+004	2,785705919532726E-005	7,270532268240841E-003	2,0000001E-002	1,3577818E+001	13	7,270532268240841E-003	0	1,2127955E+001	2,7233141E-004	9,871179597045351E-005	0,000000000000000E+000	8,543315212618509E+003	0,000000000000000E+000	2,005708286347061E-002	0,000000000000000E+000	7,270532268240841E-003	7,270532268240841E-003	0,0000000E+000	0,0000000E+000	2,0000001E-002	0,000000000000000E+000	1,4498625E+000
1	1	0	0	0	0	1	2,855289768902247E+004	2,785710246892025E-005	8,217672625224831E-003	2,0000001E-002	1,3578098E+001	13	8,217672625224827E-003	0	1,2122905E+001	2,7233746E-004	1,115710496679896E-004	0,000000000000000E+000	9,655378786830217E+003	0,000000000000000E+000	2,005711402045794E-002	0,000000000000000E+000	8,217672625224827E-003	8,217672625224827E-003	0,0000000E+000	0,0000000E+000	2,0000001E-002	0,000000000000000E+000	1,4551935E+000
1	1	0	0	0	0	1	2,872289768696425E+004	2,785813161244409E-005	9,164820385616066E-003	2,0000001E-002	1,3577216E+001	13	9,164820385616064E-003	0	1,2117492E+001	2,7232984E-004	1,244303345642500E-004	0,000000000000000E+000	1,077133404934705E+004	0,000000000000000E+000	2,005785500380408E-002	0,000000000000000E+000	9,164820385616064E-003	9,164820385616064E-003	0,0000000E+000	0,0000000E+000	2,0000001E-002	0,000000000000000E+000	1,4597244E+000
1	1	0	0	0	0	1	2,889289768490603E+004	2,785624120932900E-005	1,011195313273857E-002	2,0000001E-002	1,3577578E+001	13	1,011195313273856E-002	0	1,2113322E+001	2,7231860E-004	1,372897149199013E-004	0,000000000000000E+000	1,188308876115214E+004	0,000000000000000E+000	2,005649391354473E-002	0,000000000000000E+000	1,011195313273856E-002	1,011195313273856E-002	0,0000000E+000	0,0000000E+000	2,0000001E-002	0,000000000000000E+000	1,4642553E+000
1	1	0	0	0	0	1	2,906289768284780E+004	2,785666991997924E-005	1,105908449078620E-002	2,0000001E-002	1,3577578E+001	13	1,105908449078620E-002	0	1,2109234E+001	2,7232280E-004	1,501489066325505E-004	0,000000000000000E+000	1,299611270898985E+004	0,000000000000000E+000	2,005680258521664E-002	0,000000000000000E+000	1,105908449078620E-002	1,105908449078620E-002	0,0000000E+000	0,0000000E+000	2,0000001E-002	0,000000000000000E+000	1,4683437E+000
1	1	0	0	0	0	1	2,923289768078958E+004	2,785640171397891E-005	1,200620722575703E-002	2,0000001E-002	1,3577858E+001	13	1,200620722575703E-002	0	1,2105545E+001	2,7232579E-004	1,630081008729339E-004	0,000000000000000E+000	1,410783530533969E+004	0,000000000000000E+000	2,005660947689407E-002	0,000000000000000E+000	1,200620722575703E-002	1,200620722575703E-002	0,0000000E+000	0,0000000E+000	2,0000001E-002	0,000000000000000E+000	1,4723129E+000
1	1	0	0	0	0	1	2,940289767873136E+004	2,785655503440648E-005	1,295333221568664E-002	2,0000001E-002	1,3576174E+001	13	1,295333221568663E-002	0	1,2099973E+001	2,7229349E-004	1,758671391556089E-004	0,000000000000000E+000	1,522912168798969E+004	0,000000000000000E+000	2,005671986760325E-002	0,000000000000000E+000	1,295333221568663E-002	1,295333221568663E-002	0,0000000E+000	0,0000000E+000	2,0000001E-002	0,000000000000000E+000	1,4762011E+000
1	1	0	0	0	0	1	2,957289767667314E+004	2,785701357459443E-005	1,390045327276064E-002	2,0000001E-002	1,3576575E+001	13	1,390045327276063E-002	0	1,2097533E+001	2,7230606E-004	1,887260816187602E-004	0,000000000000000E+000	1,634050121212937E+004	0,000000000000000E+000	2,005705001654257E-002	0,000000000000000E+000	1,390045327276063E-002	1,390045327276063E-002	0,0000000E+000	0,0000000E+000	2,0000001E-002	0,000000000000000E+000	1,4790421E+000
1	1	0	0	0	0	1	2,974289767461491E+004	2,785620197984907E-005	1,484756660311141E-002	2,0000001E-002	1,3576534E+001	13	1,484756660311140E-002	0	1,2094059E+001	2,7229730E-004	2,015849471251203E-004	0,000000000000000E+000	1,745410197487904E+004	0,000000000000000E+000	2,005646566831884E-002	0,000000000000000E+000	1,484756660311140E-002	1,484756660311140E-002	0,0000000E+000	0,0000000E+000	2,0000001E-002	0,000000000000000E+000	1,4824753E+000
1	1	0	0	0	0	1	2,991289767255669E+004	2,785610467040291E-005	1,579468683561248E-002	2,0000001E-002	1,3576976E+001	13	1,579468683561247E-002	0	1,2091386E+001	2,7230519E-004	2,144434796857344E-004	0,000000000000000E+000	1,856481526587009E+004	0,000000000000000E+000	2,005639560551675E-002	0,000000000000000E+000	1,579468683561247E-002	1,579468683561247E-002	0,0000000E+000	0,0000000E+000	2,0000001E-002	0,000000000000000E+000	1,4855900E+000
1	1	0	0	0	0	1	3,008289767049847E+004	2,785692791713195E-005	1,674179824305936E-002	2,0000001E-002	1,3575372E+001	13	1,674179824305935E-002	0	1,2086480E+001	2,7228109E-004	2,273018063385788E-004	0,000000000000000E+000	1,968834572122837E+004	0,000000000000000E+000	2,005698834316884E-002	0,000000000000000E+000	1,674179824305935E-002	1,674179824305935E-002	0,0000000E+000	0,0000000E+000	2,0000001E-002	0,000000000000000E+000	1,4888916E+000
1	1	0	0	0	0	1	3,025289766844024E+004	2,785676551154918E-005	1,768892241254687E-002	2,0000001E-002	1,3576695E+001	13	1,768892241254686E-002	0	1,2085468E+001	2,7230603E-004	2,401603152281642E-004	0,000000000000000E+000	2,079317209130818E+004	0,000000000000000E+000	2,005687141114784E-002	0,000000000000000E+000	1,768892241254686E-002	1,768892241254686E-002	0,0000000E+000	0,0000000E+000	2,0000001E-002	0,000000000000000E+000	1,4912271E+000
1	1	0	0	0	0	1	3,042289766638202E+004	2,785634417956074E-005	1,863604664549842E-002	2,0000001E-002	1,3575853E+001	13	1,863604664549842E-002	0	1,2081670E+001	2,7228502E-004	2,530190830221418E-004	0,000000000000000E+000	2,191253344656641E+004	0,000000000000000E+000	2,005656805211248E-002	0,000000000000000E+000	1,863604664549842E-002	1,863604664549842E-002	0,0000000E+000	0,0000000E+000	2,0000001E-002	0,000000000000000E+000	1,4941835E+000
1	1	0	0	0	0	1	3,059289766432380E+004	2,785638423295071E-005	1,958316647882967E-002	2,0000001E-002	1,3577376E+001	13	1,958316647882966E-002	0	1,2080390E+001	2,7231596E-004	2,658778559287775E-004	0,000000000000000E+000	2,301472219915101E+004	0,000000000000000E+000	2,005659689055361E-002	0,000000000000000E+000	1,958316647882966E-002	1,958316647882966E-002	0,0000000E+000	0,0000000E+000	2,0000001E-002	0,000000000000000E+000	1,4969864E+000
1	1	0	0	0	0	1	3,076289766226558E+004	2,785669182168527E-005	2,053029942560713E-002	2,0000001E-002	1,3575853E+001	13	2,053029942560712E-002	0	1,2076077E+001	2,7228842E-004	2,787364516010025E-004	0,000000000000000E+000	2,413982328920102E+004	0,000000000000000E+000	2,005681835444518E-002	0,000000000000000E+000	2,053029942560712E-002	2,053029942560712E-002	0,0000000E+000	0,0000000E+000	2,0000001E-002	0,000000000000000E+000	1,4997768E+000
3	1	0	0	0	0	1	3,084322046129311E+004	0,000000000000000E+000	2,064327106710513E-002	0,0000000E+000	1,5064139E+001	14	2,064327110965791E-002	0	1,3574983E+001	0,0000000E+000	2,802706169032717E-004	3,725678952732088E-010	3,758037687206981E+004	3,082861381349109E+002	0,000000000000000E+000	0,000000000000000E+000	2,064327110965791E-002	2,064327110965791E-002	0,0000000E+000	0,0000000E+000	0,0000000E+000	0,000000000000000E+000	1,4891567E+000