File: SAMPLE-MPT/20220309_SSB_Cell_03_Form01/20220309_(Form02C)EIS_charging_10bis16V_step_01V+(1C+EIS)50cycle_03_GEIS_C08.mpt
EC-Lab ASCII FILE
Nb header lines : 72

Galvano Electrochemical Impedance Spectroscopy

Run on channel : 8 (SN 14384)
User :
CE vs. WE compliance from -10 V to 10 V
Electrode connection : standard
Potential control : Ewe-Ece
Ewe ctrl range : min = 0,00 V, max = 5,00 V
Safety Limits :
	Do not start on E overload
Acquisition started on : 03/09/2022 13:55:05.456
Technique started on : 03/09/2022 15:50:44.789
Loaded Setting File :  C:\DATA\x_Data_VMP3\Extern\InES\Binbin\001_Testing_Profiles\20220308_(Form02C)EIS_charging_10bis16V_step_01V+(1C+EIS)50cycle.mps
Saved on :
	File : 20220309_(Form02C)EIS_charging_10bis16V_step_01V+(1C+EIS)50cycle_03_GEIS_C08.mpr
	Directory : C:\DATA\x_Data_VMP3\Extern\InES\Binbin\20220309_SSB_Cell_03_Form01\
	Host : 134.169.45.143
Device : VMP3 (SN 0787)
Address : 134.169.45.150
EC-Lab for windows v11.42 (software)
Internet server v11.40 (firmware)
Command interpretor v11.40 (firmware)
Electrode material :
Initial state :
Electrolyte :
Comments :
Electrode surface area : 0,000 cm²
Characteristic mass : 0,001 g
Equivalent Weight : 0,000 g/eq.
Density : 0,000 g/cm3
Volume (V) : 0,001 cm³
Record Ece
Record Power
Cycle Definition : Charge/Discharge alternance
Mode                Single sine
Is                  0,000
unit Is             µA
vs.                 <None>
tIs (h:m:s)         0:00:0,0000
record              0
dE (mV)             0,000
dt (s)              0,000
fi                  1,000
unit fi             MHz
ff                  5,000
unit ff             mHz
Nd                  6
Points              per decade
spacing             Logarithmic
Ia/Va               Ia
Ia                  5,000
unit  Ia            µA
va pourcent         0,10
pw                  0,10
Na                  2
corr                0
E range min (V)     0,000
E range max (V)     5,000
I Range             10 µA
Bandwidth           5
nc cycles           0
goto Ns'            0
nr cycles           0
inc. cycle          0

Number of loops : 1
Loop 0 from point number 0 to 49

freq/Hz	Re(Z)/Ohm	-Im(Z)/Ohm	|Z|/Ohm	Phase(Z)/deg	time/s	<Ewe>/V	<I>/mA	Cs/µF	Cp/µF	cycle number	|Ewe|/V	|I|/A	Ns	I Range	(Q-Qo)/mA.h	<Ece>/V	|Ece|/V	Phase(Zce)/deg	|Zce|/Ohm	Re(Zce)/Ohm	-Im(Zce)/Ohm	Phase(Zwe-ce)/deg	|Zwe-ce|/Ohm	Re(Zwe-ce)/Ohm	-Im(Zwe-ce)/Ohm	P/W	Re(Y)/Ohm-1	Im(Y)/Ohm-1	|Y|/Ohm-1	Phase(Y)/deg	dq/mA.h
1,0000186E+006	-3,1006136E+001	4,7326885E+001	5,6579277E+001	-1,2323075E+002	6,939333158023568E+003	1,3582730E+001	1,3592406E-005	3,3628240E-003	2,3529094E-003	1,000000000000000E+000	2,9323911E-004	5,1828006E-006	0	14	1,940321324005999E-009	1,2705966E+001	2,0236596E-004	4,2578869E+001	3,9045677E+001	2,8751154E+001	-2,6418480E+001	-9,6155586E+001	2,1029654E+001	-2,2549820E+000	2,0908405E+001	0,0000000E+000	-9,6857417E-003	1,4784040E-002	1,7674316E-002	1,2323075E+002	1,940321324005999E-009
3,1029172E+005	1,4754570E+001	3,3982704E+001	3,7047558E+001	-6,6530540E+001	6,940619158084650E+003	1,3582718E+001	1,4328813E-005	1,5093572E-002	1,2699561E-002	1,000000000000000E+000	1,8008547E-004	4,8609268E-006	0	14	2,895438598563437E-009	1,2704924E+001	1,8021576E-004	-4,5440372E+001	3,7074364E+001	2,6013269E+001	2,6416250E+001	-5,5981602E+001	7,2870094E+001	4,0767838E+001	6,0398956E+001	0,0000000E+000	1,0749971E-002	2,4759324E-002	2,6992332E-002	6,6530540E+001	-3,821572460304246E-009
9,6283031E+004	1,1332525E+001	-5,9815345E+000	1,2814245E+001	2,7825993E+001	6,941512158127065E+003	1,3582737E+001	1,8086572E-005	-2,7634892E-001	-6,0213923E-002	1,000000000000000E+000	6,1727471E-005	4,8170978E-006	0	14	7,685384040491448E-009	1,2707008E+001	4,9313513E-004	-5,6273438E+001	1,0237183E+002	5,6839920E+001	8,5142326E+001	-4,9265312E+001	1,0446967E+002	6,8172447E+001	7,9160789E+001	0,0000000E+000	6,9014542E-002	-3,6427263E-002	7,8038149E-002	-2,7825993E+001	-3,756583261419009E-009
2,9876783E+004	4,2743254E-002	-2,5754216E+000	2,5757763E+000	8,9049171E+001	6,942667158181925E+003	1,3582956E+001	1,8753821E-005	-2,0684164E+000	-2,0678468E+000	1,000000000000000E+000	1,2194442E-005	4,7342783E-006	0	14	7,117079044746788E-009	1,2706087E+001	9,9961262E-004	-5,4091122E+001	2,1114362E+002	1,2383527E+002	1,7101593E+002	-5,3667721E+001	2,0908842E+002	1,2387801E+002	1,6844051E+002	0,0000000E+000	6,4424565E-003	-3,8817900E-001	3,8823247E-001	-8,9049171E+001	-5,123839299711911E-010
9,2692256E+003	3,7701926E+000	-3,3204958E-001	3,7847865E+000	5,0331850E+000	6,943822158236784E+003	1,3582839E+001	1,6038817E-005	-5,1709908E+001	-3,9801264E-001	1,000000000000000E+000	1,7979957E-005	4,7505869E-006	0	14	1,237074253658142E-008	1,2707490E+001	2,0495260E-003	-5,2971043E+001	4,3142584E+002	2,5981265E+002	3,4442075E+002	-5,2546738E+001	4,3344312E+002	2,6358286E+002	3,4408868E+002	0,0000000E+000	2,6319692E-001	-2,3180360E-002	2,6421571E-001	-5,0331850E+000	4,805764453521988E-009
2,8779956E+003	2,7145731E+000	2,0936930E+000	3,4281859E+000	-3,7642246E+001	6,945034158294351E+003	1,3582706E+001	5,4728798E-006	2,6412954E+001	9,8517694E+000	1,000000000000000E+000	1,5759295E-005	4,5969778E-006	0	14	1,059726938151723E-008	1,2708212E+001	3,9636623E-003	-4,9434864E+001	8,6223224E+002	5,6072003E+002	6,5500952E+002	-4,9388489E+001	8,6558838E+002	5,6343463E+002	6,5710321E+002	0,0000000E+000	2,3097917E-001	1,7814937E-001	2,9169947E-001	3,7642246E+001	-1,697289900385435E-009
8,9299957E+002	4,0933948E+000	5,1956296E+000	6,6144123E+000	-5,1767071E+001	6,946601158368780E+003	1,3582767E+001	5,6277568E-006	3,4302891E+001	2,1165304E+001	1,000000000000000E+000	3,1696298E-005	4,7920053E-006	0	14	1,556191980950277E-008	1,2711138E+001	7,7203303E-003	-4,2821247E+001	1,6110856E+003	1,1816956E+003	1,0950763E+003	-4,2857677E+001	1,6176198E+003	1,1857889E+003	1,1002720E+003	0,0000000E+000	9,3562342E-002	1,1875603E-001	1,5118501E-001	5,1767071E+001	-5,533773416585771E-011
2,7686047E+002	3,2258775E+000	1,7762771E+000	3,6825869E+000	-2,8838663E+001	6,947932158431999E+003	1,3582604E+001	6,7581677E-006	3,2362976E+002	7,5294609E+001	1,000000000000000E+000	1,7548982E-005	4,7653953E-006	0	14	1,494020629289455E-008	1,2716831E+001	1,2771427E-002	-3,4538185E+001	2,6800352E+003	2,2076750E+003	1,5194603E+003	-3,4530376E+001	2,6836995E+003	2,2109009E+003	1,5212366E+003	0,0000000E+000	2,3787120E-001	1,3097991E-001	2,7154824E-001	2,8838663E+001	-6,744975213987602E-010
8,5907173E+001	3,4570580E+000	1,8774811E+001	1,9090437E+001	-7,9566833E+001	6,949263158495218E+003	1,3582681E+001	7,1418121E-006	9,8676819E+001	9,5440903E+001	1,000000000000000E+000	9,0908135E-005	4,7619724E-006	0	14	2,365151862562698E-008	1,2691173E+001	1,8902594E-002	-2,6170504E+001	3,9694885E+003	3,5625586E+003	1,7507186E+003	-2,6391077E+001	3,9809011E+003	3,5660156E+003	1,7694934E+003	0,0000000E+000	9,4858212E-003	5,1516205E-002	5,2382249E-002	7,9566833E+001	3,924788779158916E-009
2,6682035E+001	8,6111593E+000	5,0424161E+000	9,9788790E+000	-3,0351858E+001	6,950591158558294E+003	1,3582708E+001	4,6660243E-006	1,1829393E+003	3,0204825E+002	1,000000000000000E+000	4,7508613E-005	4,7609169E-006	0	14	1,797231638581328E-008	1,2694099E+001	2,5314571E-002	-1,8209814E+001	5,3171631E+003	5,0508716E+003	1,6616008E+003	-1,8232389E+001	5,3269189E+003	5,0594829E+003	1,6666432E+003	0,0000000E+000	8,6476505E-002	5,0637841E-002	1,0021166E-001	3,0351858E+001	2,128989690908786E-009
8,2759562E+000	8,7542372E+000	-2,5511374E+000	9,1183863E+000	1,6247044E+001	6,951982158624363E+003	1,3582507E+001	9,6892500E-006	-7,5382075E+003	-5,9006494E+002	1,000000000000000E+000	4,3428085E-005	4,7626941E-006	0	14	-3,756526726375695E-009	1,2722163E+001	2,9995022E-002	-1,0706485E+001	6,2979106E+003	6,1882754E+003	1,1700121E+003	-1,0668931E+001	6,3060400E+003	6,1970298E+003	1,1674609E+003	0,0000000E+000	1,0528884E-001	-3,0683003E-002	1,0966853E-001	-1,6247044E+001	-4,550261711269994E-008
2,5682116E+000	1,1735722E+001	1,5001309E+000	1,1831211E+001	-7,2843900E+000	6,953802158710809E+003	1,3582609E+001	6,0631592E-006	4,1310473E+004	6,6414069E+002	1,000000000000000E+000	5,6339195E-005	4,7619128E-006	0	14	8,372169702748049E-008	1,2717633E+001	3,2551080E-002	-6,4023323E+000	6,8357153E+003	6,7930835E+003	7,6224646E+002	-6,4038568E+000	6,8475454E+003	6,8048193E+003	7,6374658E+002	0,0000000E+000	8,3840027E-002	1,0716939E-002	8,4522203E-002	7,2843900E+000	7,907889909701131E-009
7,9621863E-001	1,4981392E+001	2,5198312E+000	1,5191829E+001	-9,5476341E+000	6,959508158981829E+003	1,3582472E+001	6,9881780E-006	7,9326148E+004	2,1824241E+003	1,000000000000000E+000	7,2343297E-005	4,7619874E-006	0	14	-2,183258276701407E-007	1,2717874E+001	3,4484707E-002	-5,0221629E+000	7,2416626E+003	7,2138613E+003	6,3394299E+002	-5,0316272E+000	7,2568071E+003	7,2288428E+003	6,3646283E+002	0,0000000E+000	6,4913057E-002	1,0918206E-002	6,5824859E-002	9,5476341E+000	-9,668833293276672E-008
2,4724665E-001	6,5221753E+000	9,5145655E+000	1,1535412E+001	-5,5569607E+001	6,977761159848800E+003	1,3582163E+001	7,0334149E-006	6,7655133E+004	4,6026980E+004	1,000000000000000E+000	5,4933149E-005	4,7621315E-006	0	14	7,236879308568847E-007	1,2676179E+001	3,6445323E-002	-5,5087757E+000	7,6531533E+003	7,6178071E+003	7,3468903E+002	-5,5749269E+000	7,6605635E+003	7,6243291E+003	7,4420361E+002	0,0000000E+000	4,9014688E-002	7,1502753E-002	8,6689577E-002	5,5569607E+001	5,845447304958624E-007
7,6773763E-002	1,5446693E+001	4,6728697E+000	1,6138031E+001	-1,6831398E+001	7,036458162636758E+003	1,3582513E+001	6,8074987E-006	4,4363275E+005	3,7195453E+004	1,000000000000000E+000	7,6848431E-005	4,7619460E-006	0	14	5,408272177669143E-007	1,2748703E+001	3,8948353E-002	-5,7832184E+000	8,1790835E+003	8,1374541E+003	8,2416455E+002	-5,8048406E+000	8,1949229E+003	8,1529009E+003	8,2883740E+002	0,0000000E+000	5,9310891E-002	1,7942484E-002	6,1965428E-002	1,6831398E+001	-9,600557817837828E-007
2,3795672E-002	1,1019929E+001	-1,4779393E+001	1,8435545E+001	5,3290756E+001	7,225570171619096E+003	1,3582527E+001	6,8522236E-006	-4,5254894E+005	-2,9084847E+005	1,000000000000000E+000	8,7793502E-005	4,7621866E-006	0	14	-7,809364223987131E-006	1,2742569E+001	4,3360170E-002	-6,7359700E+000	9,1050967E+003	9,0422461E+003	1,0679752E+003	-6,6355772E+000	9,1143203E+003	9,0532656E+003	1,0531958E+003	0,0000000E+000	3,2424022E-002	-4,3485519E-002	5,4243039E-002	-5,3290756E+001	-2,465384483252718E-006
7,3873415E-003	1,0595166E+001	-3,1900398E+001	3,3613880E+001	7,1626984E+001	7,834865200559056E+003	1,3582285E+001	7,7157083E-006	-6,7536081E+005	-6,0826213E+005	1,000000000000000E+000	1,6007037E-004	4,7620319E-006	0	14	2,360161939952387E-005	1,2703000E+001	4,6230659E-002	-8,8363934E+000	9,7081787E+003	9,5929521E+003	1,4913074E+003	-8,6408653E+000	9,7138037E+003	9,6035469E+003	1,4594070E+003	0,0000000E+000	9,3771415E-003	-2,8233115E-002	2,9749615E-002	-7,1626984E+001	1,910784319553475E-005
5,0018891E-003	4,5281216E+001	3,3820462E+000	4,5407341E+001	-4,2714806E+000	8,256207220571756E+003	1,3582067E+001	6,2227646E-006	9,4082000E+006	5,2193145E+004	1,000000000000000E+000	2,1621595E-004	4,7616959E-006	0	14	4,642637555050310E-005	1,2721161E+001	4,7129486E-002	-8,3088331E+000	9,8976260E+003	9,7937354E+003	1,4302936E+003	-8,2904110E+000	9,9429209E+003	9,8390166E+003	1,4336757E+003	0,0000000E+000	2,1961698E-002	1,6403154E-003	2,2022871E-002	4,2714806E+000	2,282475615097923E-005