File: SAMPLE-MPT/20220309_SSB_Cell_03_Form01/20220309_(Form02C)EIS_charging_10bis16V_step_01V+(1C+EIS)50cycle_13_GEIS_C08.mpt
EC-Lab ASCII FILE
Nb header lines : 72

Galvano Electrochemical Impedance Spectroscopy

Run on channel : 8 (SN 14384)
User :
CE vs. WE compliance from -10 V to 10 V
Electrode connection : standard
Potential control : Ewe-Ece
Ewe ctrl range : min = 0,00 V, max = 5,00 V
Safety Limits :
	Do not start on E overload
Acquisition started on : 03/09/2022 13:55:05.456
Technique started on : 03/09/2022 22:29:09.601
Loaded Setting File :  C:\DATA\x_Data_VMP3\Extern\InES\Binbin\001_Testing_Profiles\20220308_(Form02C)EIS_charging_10bis16V_step_01V+(1C+EIS)50cycle.mps
Saved on :
	File : 20220309_(Form02C)EIS_charging_10bis16V_step_01V+(1C+EIS)50cycle_13_GEIS_C08.mpr
	Directory : C:\DATA\x_Data_VMP3\Extern\InES\Binbin\20220309_SSB_Cell_03_Form01\
	Host : 134.169.45.143
Device : VMP3 (SN 0787)
Address : 134.169.45.150
EC-Lab for windows v11.42 (software)
Internet server v11.40 (firmware)
Command interpretor v11.40 (firmware)
Electrode material :
Initial state :
Electrolyte :
Comments :
Electrode surface area : 0,000 cm²
Characteristic mass : 0,001 g
Equivalent Weight : 0,000 g/eq.
Density : 0,000 g/cm3
Volume (V) : 0,001 cm³
Record Ece
Record Power
Cycle Definition : Charge/Discharge alternance
Mode                Single sine
Is                  0,000
unit Is             µA
vs.                 <None>
tIs (h:m:s)         0:00:0,0000
record              0
dE (mV)             0,000
dt (s)              0,000
fi                  1,000
unit fi             MHz
ff                  5,000
unit ff             mHz
Nd                  6
Points              per decade
spacing             Logarithmic
Ia/Va               Ia
Ia                  5,000
unit  Ia            µA
va pourcent         0,10
pw                  0,10
Na                  2
corr                0
E range min (V)     0,000
E range max (V)     5,000
I Range             10 µA
Bandwidth           5
nc cycles           0
goto Ns'            0
nr cycles           0
inc. cycle          0

Number of loops : 1
Loop 0 from point number 0 to 49

freq/Hz	Re(Z)/Ohm	-Im(Z)/Ohm	|Z|/Ohm	Phase(Z)/deg	time/s	<Ewe>/V	<I>/mA	Cs/µF	Cp/µF	cycle number	|Ewe|/V	|I|/A	Ns	I Range	(Q-Qo)/mA.h	<Ece>/V	|Ece|/V	Phase(Zce)/deg	|Zce|/Ohm	Re(Zce)/Ohm	-Im(Zce)/Ohm	Phase(Zwe-ce)/deg	|Zwe-ce|/Ohm	Re(Zwe-ce)/Ohm	-Im(Zwe-ce)/Ohm	P/W	Re(Y)/Ohm-1	Im(Y)/Ohm-1	|Y|/Ohm-1	Phase(Y)/deg	dq/mA.h
1,0000186E+006	-2,9358492E+001	4,6484180E+001	5,4979088E+001	-1,2227570E+002	3,084414466133702E+004	1,3576645E+001	1,7306085E-005	3,4237881E-003	2,4474971E-003	1,000000000000000E+000	2,8948166E-004	5,2653049E-006	0	14	8,099560892023622E-010	1,2089965E+001	2,6071604E-004	8,7465111E+001	4,9515850E+001	2,1899765E+000	-4,9467396E+001	1,7373380E+002	2,7331810E+001	-2,7168516E+001	-2,9832153E+000	0,0000000E+000	-9,7126700E-003	1,5378363E-002	1,8188734E-002	1,2227570E+002	8,099560892023622E-010
3,1029172E+005	1,4863337E+001	3,6136051E+001	3,9073429E+001	-6,7641853E+001	3,084529966139188E+004	1,3576698E+001	1,3327530E-005	1,4194145E-002	1,2140249E-002	1,000000000000000E+000	1,9040318E-004	4,8729580E-006	0	14	6,190950174590802E-009	1,2088839E+001	1,0871479E-004	-9,1322536E+000	2,2309814E+001	2,2027029E+001	3,5408773E+000	-4,7084282E+001	5,4177097E+001	3,6890366E+001	3,9676929E+001	0,0000000E+000	9,7353859E-003	2,3668876E-002	2,5592839E-002	6,7641853E+001	1,317465144666130E-009
9,6283031E+004	8,8397493E+000	-8,9830666E+000	1,2603042E+001	4,5460716E+001	3,084619266143430E+004	1,3576571E+001	1,5990321E-005	-1,8401183E-001	-9,3485497E-002	1,000000000000000E+000	6,0581235E-005	4,8068741E-006	0	14	1,243604211140337E-008	1,2088991E+001	1,7904524E-004	-3,8945457E+001	3,7247749E+001	2,8969238E+001	2,3413202E+001	-2,0889799E+001	4,0469105E+001	3,7808987E+001	1,4430136E+001	0,0000000E+000	5,5653084E-002	-5,6555375E-002	7,9345927E-002	-4,5460716E+001	2,418040458150495E-010
2,9876783E+004	3,7235398E+000	-1,5773958E+000	4,0438752E+000	2,2958878E+001	3,084734766148916E+004	1,3576521E+001	1,7307309E-005	-3,3771136E+000	-5,1384425E-001	1,000000000000000E+000	1,9158169E-005	4,7375770E-006	0	14	1,231588753648793E-008	1,2089220E+001	2,4596899E-004	-2,3857626E+001	5,1918732E+001	4,7482449E+001	2,0999327E+001	-2,0771246E+001	5,4765545E+001	5,1205990E+001	1,9421930E+001	0,0000000E+000	2,2769868E-001	-9,6459545E-002	2,4728756E-001	-2,2958878E+001	-2,351429504591984E-009
9,2692256E+003	-1,1366040E+000	-2,1264565E+000	2,4111586E+000	1,1812477E+002	3,084850266154401E+004	1,3576477E+001	1,8635512E-005	-8,0745840E+000	-6,2803183E+000	1,000000000000000E+000	1,1451792E-005	4,7494977E-006	0	14	1,856764702258968E-008	1,2089106E+001	3,2972801E-004	-1,9486383E+001	6,9423759E+001	6,5447220E+001	2,3158573E+001	-1,8109793E+001	6,7662437E+001	6,4310616E+001	2,1032116E+001	0,0000000E+000	-1,9550486E-001	-3,6576739E-001	4,1473839E-001	-1,1812477E+002	-2,284995048714538E-009
2,8779956E+003	1,1315053E+000	-8,6870715E-002	1,1348351E+000	4,3902407E+000	3,084971466160158E+004	1,3576260E+001	7,6053170E-006	-6,3658527E+002	-3,7302492E+000	1,000000000000000E+000	5,2155719E-006	4,5958850E-006	0	14	2,466756733811811E-008	1,2090098E+001	3,9866005E-004	-1,3649445E+001	8,6742828E+001	8,4293015E+001	2,0469643E+001	-1,3420169E+001	8,7822586E+001	8,5424522E+001	2,0382772E+001	0,0000000E+000	8,7859970E-001	-6,7454025E-002	8,8118529E-001	-4,3902407E+000	5,849893205714175E-009
8,9299957E+002	-3,3111200E-002	3,0685644E+000	3,0687430E+000	-9,0618225E+001	3,085128166167601E+004	1,3576278E+001	6,3536154E-006	5,8080936E+001	5,8074181E+001	1,000000000000000E+000	1,4701165E-005	4,7906146E-006	0	14	2,513720690120635E-008	1,2088419E+001	4,8760834E-004	-1,1001161E+001	1,0178409E+002	9,9913635E+001	1,9423344E+001	-1,2690643E+001	1,0238166E+002	9,9880524E+001	2,2491909E+001	0,0000000E+000	-3,5160501E-003	3,2584733E-001	3,2586631E-001	9,0618225E+001	2,384836502686640E-009
2,7686047E+002	3,7251062E+000	-4,4603688E-001	3,7517149E+000	6,8279762E+000	3,085261266173923E+004	1,3576260E+001	6,0987254E-006	-1,2888085E+003	-1,8216724E+001	1,000000000000000E+000	1,7874283E-005	4,7642966E-006	0	14	3,234245694457943E-008	1,2089220E+001	5,5322051E-004	-9,2374382E+000	1,1611798E+002	1,1461211E+002	1,8639975E+001	-8,7405863E+000	1,1972768E+002	1,1833722E+002	1,8193937E+001	0,0000000E+000	2,6465431E-001	-3,1689186E-002	2,6654476E-001	-6,8279762E+000	3,168658782252960E-009
8,5907173E+001	1,2620285E+001	7,6270776E+000	1,4745979E+001	-3,1146694E+001	3,085394366180245E+004	1,3576259E+001	6,2532254E-006	2,4290282E+002	6,4983276E+001	1,000000000000000E+000	7,0203096E-005	4,7608296E-006	0	14	3,126073696229999E-008	1,2090977E+001	5,3517544E-004	-5,5883141E+000	1,1241222E+002	1,1187796E+002	1,0946692E+001	-8,4853163E+000	1,2587612E+002	1,2449825E+002	1,8573771E+001	0,0000000E+000	5,8039267E-002	3,5076067E-002	6,7815095E-002	3,1146694E+001	-4,483912036650759E-010
2,6682035E+001	-2,3086672E+000	1,4266618E+001	1,4452209E+001	-9,9192093E+001	3,085527166186552E+004	1,3576249E+001	6,4640863E-006	4,1809995E+002	4,0743069E+002	1,000000000000000E+000	6,8813257E-005	4,7614353E-006	0	14	4,211951888735636E-008	1,2089927E+001	6,7801855E-004	-5,3384342E+000	1,4239793E+002	1,4178029E+002	1,3248490E+001	-1,1160062E+001	1,4215982E+002	1,3947162E+002	2,7515108E+001	0,0000000E+000	-1,1053326E-002	6,8305016E-002	6,9193579E-002	9,9192093E+001	1,121928454090775E-009
8,2759562E+000	-9,7504579E-002	-8,1781235E+000	8,1787043E+000	9,0683083E+001	3,085666266193159E+004	1,3576333E+001	9,6640561E-006	-2,3515178E+003	-2,3511838E+003	1,000000000000000E+000	3,8933449E-005	4,7603444E-006	0	14	5,814469503227808E-008	1,2090003E+001	7,1096921E-004	-8,9046793E+000	1,4935248E+002	1,4755237E+002	2,3118429E+001	-5,7855339E+000	1,4820982E+002	1,4745486E+002	1,4940306E+001	0,0000000E+000	-1,4576585E-003	-1,2226007E-001	1,2226876E-001	-9,0683083E+001	4,224989705787469E-008
2,5682116E+000	3,0275044E+000	1,7655008E+000	3,5046792E+000	-3,0248764E+001	3,085848266201804E+004	1,3576359E+001	6,3034959E-006	3,5101156E+004	8,9075996E+003	1,000000000000000E+000	1,6681612E-005	4,7598114E-006	0	14	-3,867844494274348E-008	1,2090786E+001	8,1337366E-004	-1,0030119E+001	1,7088359E+002	1,6827187E+002	2,9762085E+001	-1,0428558E+001	1,7417653E+002	1,7129938E+002	3,1527586E+001	0,0000000E+000	2,4648373E-001	1,4373794E-001	2,8533283E-001	3,0248764E+001	-4,497444304058718E-008
7,9621863E-001	6,7920837E+000	-9,1195226E-002	6,7926960E+000	7,6924664E-001	3,086418966228911E+004	1,3576467E+001	7,3798665E-006	-2,1918745E+006	-3,9507138E+002	1,000000000000000E+000	3,2334458E-005	4,7601802E-006	0	14	3,055037502279055E-007	1,2089927E+001	9,3255989E-004	-1,2649316E+001	1,9590852E+002	1,9115356E+002	4,2900665E+001	-1,2203348E+001	2,0252193E+002	1,9794565E+002	4,2809471E+001	0,0000000E+000	1,4720368E-001	-1,9764586E-003	1,4721695E-001	-7,6924664E-001	1,762076128627036E-007
2,4724665E-001	6,1693616E+000	5,2761233E-001	6,1918817E+000	-4,8881207E+000	3,088244366315613E+004	1,3576537E+001	7,0854594E-006	1,2200420E+006	8,8584834E+003	1,000000000000000E+000	2,9474291E-005	4,7601511E-006	0	14	-1,823438667870694E-007	1,2091244E+001	1,1065726E-003	-1,0880495E+001	2,3246585E+002	2,2828682E+002	4,3880520E+001	-1,0725286E+001	2,3862477E+002	2,3445618E+002	4,4408131E+001	0,0000000E+000	1,6091441E-001	1,3761624E-002	1,6150180E-001	4,8881207E+000	-4,839823042199340E-007
7,6773763E-002	9,0808315E+000	-1,0093039E+001	1,3576853E+001	4,8021893E+001	3,094114066594408E+004	1,3576514E+001	6,8271265E-006	-2,0539288E+005	-1,1350919E+005	1,000000000000000E+000	6,4623542E-005	4,7598323E-006	0	14	-1,525281316571668E-006	1,2093172E+001	1,4612797E-003	-1,6000969E+001	3,0700235E+002	2,9510818E+002	8,4626305E+001	-1,3767536E+001	3,1318710E+002	3,0418903E+002	7,4533264E+001	0,0000000E+000	4,9263742E-002	-5,4754991E-002	7,3654771E-002	-4,8021893E+001	1,440138750516174E-007
2,3795672E-002	-1,1353282E+001	7,7122903E+000	1,3725029E+001	-1,4581171E+002	3,113025167492637E+004	1,3576227E+001	6,6439034E-006	8,6723900E+005	2,7382872E+005	1,000000000000000E+000	6,5329419E-005	4,7598746E-006	0	14	9,254001685140237E-006	1,2095882E+001	1,6273889E-003	-2,8120752E+001	3,4189743E+002	3,0153857E+002	1,6114699E+002	-3,0195192E+001	3,3573944E+002	2,9018530E+002	1,6885928E+002	0,0000000E+000	-6,0269121E-002	4,0940851E-002	7,2859593E-002	1,4581171E+002	5,093904959804327E-006
7,3873415E-003	1,4847296E+001	2,1434280E+001	2,6074327E+001	-5,5290070E+001	3,173954670386633E+004	1,3576182E+001	6,6584125E-006	1,0051319E+006	6,7922650E+005	1,000000000000000E+000	1,2411037E-004	4,7598687E-006	0	14	-7,068852780880573E-006	1,2110600E+001	2,0123420E-003	-6,4585872E+000	4,2277258E+002	4,2008942E+002	4,7555592E+001	-9,0131922E+000	4,4037433E+002	4,3493671E+002	6,8989868E+001	0,0000000E+000	2,1838417E-002	3,1527001E-002	3,8351901E-002	5,5290070E+001	-1,542496255931085E-005
5,0018891E-003	4,6464451E+001	8,4381742E+000	4,7224442E+001	-1,0293020E+001	3,216088872387900E+004	1,3575984E+001	6,6245320E-006	3,7708355E+006	1,2039291E+005	1,000000000000000E+000	2,2476944E-004	4,7595995E-006	0	14	-3,358735966399520E-005	1,2117836E+001	3,0713612E-003	-8,9127035E+000	6,4529822E+002	6,3750659E+002	9,9975685E+001	-9,0068216E+000	6,9250995E+002	6,8397107E+002	1,0841386E+002	0,0000000E+000	2,0834696E-002	3,7836840E-003	2,1175476E-002	1,0293020E+001	-2,651850688311463E-005