File: SAMPLE-MPT/20220309_SSB_Cell_03_Form01/20220309_(Form02C)EIS_charging_10bis16V_step_01V+(1C+EIS)50cycle_04_GCPL6_C08.mpt
EC-Lab ASCII FILE
Nb header lines : 76

Galvanostatic Cycling with Potential Limitation 6

Run on channel : 8 (SN 14384)
User :
CE vs. WE compliance from -10 V to 10 V
Electrode connection : standard
Potential control : Ewe-Ece
Ecell ctrl range : min = 0,00 V, max = 5,00 V
Safety Limits :
	Do not start on E overload
Acquisition started on : 03/09/2022 13:55:05.456
Technique started on : 03/09/2022 16:12:41.714
Loaded Setting File :  C:\DATA\x_Data_VMP3\Extern\InES\Binbin\001_Testing_Profiles\20220308_(Form02C)EIS_charging_10bis16V_step_01V+(1C+EIS)50cycle.mps
Saved on :
	File : 20220309_(Form02C)EIS_charging_10bis16V_step_01V+(1C+EIS)50cycle_04_GCPL6_C08.mpr
	Directory : C:\DATA\x_Data_VMP3\Extern\InES\Binbin\20220309_SSB_Cell_03_Form01\
	Host : 134.169.45.143
Device : VMP3 (SN 0787)
Address : 134.169.45.150
EC-Lab for windows v11.42 (software)
Internet server v11.40 (firmware)
Command interpretor v11.40 (firmware)
Electrode material :
Initial state :
Electrolyte :
Comments :
Electrode surface area : 0,000 cm²
Characteristic mass : 0,001 g
Equivalent Weight : 0,000 g/eq.
Density : 0,000 g/cm3
Volume (V) : 0,001 cm³
Record Ece
Record Power
Cycle Definition : Charge/Discharge alternance
Ns                  0                   1
Set I/C             I                   I
Is                  0,000               20,000
unit Is             mA                  µA
vs.                 <None>              <None>
N                   1,00                1,00
I sign              > 0                 > 0
t1 (h:m:s)          0:00:0,0000         20:00:0,0000
I Range             100 µA              100 µA
Bandwidth           5                   5
dE1 (mV)            0,00                0,00
dt1 (s)             0,0000              5,0000
EM (V)              0,000               1,100
tM (h:m:s)          0:00:0,0000         10:00:0,0000
Im                  0,000               10,000
unit Im             mA                  µA
dI/dt               0,000               0,000
dunit dI/dt         mA/s                mA/s
E range min (V)     0,000               0,000
E range max (V)     5,000               5,000
dq                  0,000               1,000
unit dq             mA.h                mA.h
dtq (s)             0,0000              120,0000
dQM                 0,000               0,000
unit dQM            mA.h                mA.h
dxM                 0,000               0,000
delta SoC (%)       pass                pass
tR (h:m:s)          0:00:10,0000        0:01:0,0000
dER/dt (mV/h)       0,0                 0,1
dER (mV)            0,00                0,00
dtR (s)             1,0000              120,0000
EL (V)              pass                pass
goto Ns'            0                   0
nc cycles           0                   0

Number of loops : 1
Loop 0 from point number 0 to 85

mode	ox/red	error	control changes	Ns changes	counter inc.	Ns	time/s	dq/mA.h	(Q-Qo)/mA.h	control/V/mA	Ewe/V	I Range	Q charge/discharge/mA.h	half cycle	Ece/V	P/W	Energy charge/W.h	Energy discharge/W.h	Capacitance charge/µF	Capacitance discharge/µF	<I>/mA	Q discharge/mA.h	Q charge/mA.h	Capacity/mA.h	Efficiency/%	control/V	control/mA	cycle number	 Ecell/V
3	1	0	1	0	0	0	8,256258020574125E+003	0,000000000000000E+000	0,000000000000000E+000	0,0000000E+000	1,0514146E+001	14	0,000000000000000E+000	0	1,3596090E+001	0,0000000E+000	0,000000000000000E+000	0,000000000000000E+000	0,000000000000000E+000	0,000000000000000E+000	0,000000000000000E+000	0,000000000000000E+000	0,000000000000000E+000	0,000000000000000E+000	0,0000000E+000	0,0000000E+000	0,0000000E+000	0,000000000000000E+000	-3,0819445E+000
3	1	0	1	0	0	0	8,260258020525696E+003	0,000000000000000E+000	0,000000000000000E+000	0,0000000E+000	1,4416682E+001	14	0,000000000000000E+000	0	1,3580956E+001	0,0000000E+000	0,000000000000000E+000	0,000000000000000E+000	0,000000000000000E+000	0,000000000000000E+000	0,000000000000000E+000	0,000000000000000E+000	0,000000000000000E+000	0,000000000000000E+000	0,0000000E+000	0,0000000E+000	0,0000000E+000	0,000000000000000E+000	8,3572578E-001
3	1	0	1	0	0	0	8,264258020477268E+003	0,000000000000000E+000	0,000000000000000E+000	0,0000000E+000	1,4415119E+001	14	0,000000000000000E+000	0	1,3581237E+001	0,0000000E+000	0,000000000000000E+000	0,000000000000000E+000	0,000000000000000E+000	0,000000000000000E+000	0,000000000000000E+000	0,000000000000000E+000	0,000000000000000E+000	0,000000000000000E+000	0,0000000E+000	0,0000000E+000	0,0000000E+000	0,000000000000000E+000	8,3388233E-001
1	1	0	0	0	0	1	8,271258220392512E+003	2,786132988313006E-005	2,786354926601052E-005	2,0000001E-002	1,3582829E+001	13	2,786354926601052E-005	0	1,2569312E+001	2,7247370E-004	3,784590276758054E-007	0,000000000000000E+000	3,268788498246677E+001	0,000000000000000E+000	2,006015775872586E-002	0,000000000000000E+000	2,786354926601052E-005	2,786354926601052E-005	0,0000000E+000	0,0000000E+000	2,0000001E-002	0,000000000000000E+000	1,0135174E+000
1	1	0	0	0	0	1	8,291258220150368E+003	2,786148956066205E-005	1,393093786379322E-004	2,0000001E-002	1,3582789E+001	13	1,393093786379322E-004	0	1,2545499E+001	2,7247446E-004	1,892110438711073E-006	0,000000000000000E+000	1,634317416360396E+002	0,000000000000000E+000	2,006027272655028E-002	0,000000000000000E+000	1,393093786379322E-004	1,393093786379322E-004	0,0000000E+000	0,0000000E+000	2,0000001E-002	0,000000000000000E+000	1,0372906E+000
1	1	0	0	0	0	1	8,311258219908224E+003	2,786154457399001E-005	2,507557292724442E-004	2,0000001E-002	1,3582549E+001	13	2,507557292724442E-004	0	1,2533551E+001	2,7247018E-004	3,405796828708242E-006	0,000000000000000E+000	2,941988238151336E+002	0,000000000000000E+000	2,006031233614689E-002	0,000000000000000E+000	2,507557292724442E-004	2,507557292724442E-004	0,0000000E+000	0,0000000E+000	2,0000001E-002	0,000000000000000E+000	1,0489979E+000
1	1	0	0	0	0	1	8,331258219666081E+003	2,786098400337829E-005	3,622013832678398E-004	2,0000001E-002	1,3581347E+001	13	3,622013832678398E-004	0	1,2524010E+001	2,7244055E-004	4,919458160176193E-006	0,000000000000000E+000	4,251189028709564E+002	0,000000000000000E+000	2,005990872530156E-002	0,000000000000000E+000	3,622013832678398E-004	3,622013832678398E-004	0,0000000E+000	0,0000000E+000	2,0000001E-002	0,000000000000000E+000	1,0573368E+000
1	1	0	0	0	0	1	8,351258219423937E+003	2,786119785998017E-005	4,736478122649714E-004	2,0000001E-002	1,3582509E+001	13	4,736478122649714E-004	0	1,2518277E+001	2,7246599E-004	6,433126643437476E-006	0,000000000000000E+000	5,557139160967873E+002	0,000000000000000E+000	2,006006270205678E-002	0,000000000000000E+000	4,736478122649714E-004	4,736478122649714E-004	0,0000000E+000	0,0000000E+000	2,0000001E-002	0,000000000000000E+000	1,0642319E+000
1	1	0	0	0	0	1	8,371258219181793E+003	2,786230894964602E-005	5,850946406568918E-004	2,0000001E-002	1,3580945E+001	13	5,850946406568918E-004	0	1,2510459E+001	2,7244547E-004	7,946756975107967E-006	0,000000000000000E+000	6,868205558469903E+002	0,000000000000000E+000	2,006086268662588E-002	0,000000000000000E+000	5,850946406568918E-004	5,850946406568918E-004	0,0000000E+000	0,0000000E+000	2,0000001E-002	0,000000000000000E+000	1,0704861E+000
1	1	0	0	0	0	1	8,391258218939649E+003	2,786109912426521E-005	6,965394037047194E-004	2,0000001E-002	1,3581225E+001	13	6,965394037047194E-004	0	1,2505288E+001	2,7243927E-004	9,460358139381511E-006	0,000000000000000E+000	8,175666190944737E+002	0,000000000000000E+000	2,005999161234115E-002	0,000000000000000E+000	6,965394037047194E-004	6,965394037047194E-004	0,0000000E+000	0,0000000E+000	2,0000001E-002	0,000000000000000E+000	1,0759373E+000
1	1	0	0	0	0	1	8,411258218697505E+003	2,786114249988976E-005	8,079836873177232E-004	2,0000001E-002	1,3582229E+001	13	8,079836873177231E-004	0	1,2501039E+001	2,7245982E-004	1,097398520813368E-005	0,000000000000000E+000	9,480647867085783E+002	0,000000000000000E+000	2,006002284279121E-002	0,000000000000000E+000	8,079836873177231E-004	8,079836873177231E-004	0,0000000E+000	0,0000000E+000	2,0000001E-002	0,000000000000000E+000	1,0811901E+000
1	1	0	0	0	0	1	8,431258218455361E+003	2,786096745657010E-005	9,194278408480394E-004	2,0000001E-002	1,3581025E+001	13	9,194278408480393E-004	0	1,2494945E+001	2,7243397E-004	1,248762055363569E-005	0,000000000000000E+000	1,079253512446535E+003	0,000000000000000E+000	2,005989681159952E-002	0,000000000000000E+000	9,194278408480393E-004	9,194278408480393E-004	0,0000000E+000	0,0000000E+000	2,0000001E-002	0,000000000000000E+000	1,0860806E+000
1	1	0	0	0	0	1	8,451258218213217E+003	2,786081127222213E-005	1,030871933398768E-003	2,0000001E-002	1,3580825E+001	13	1,030871933398768E-003	0	1,2490414E+001	2,7242841E-004	1,400113106706759E-005	0,000000000000000E+000	1,210149141531117E+003	0,000000000000000E+000	2,005978435886763E-002	0,000000000000000E+000	1,030871933398768E-003	1,030871933398768E-003	0,0000000E+000	0,0000000E+000	2,0000001E-002	0,000000000000000E+000	1,0904112E+000
1	1	0	0	0	0	1	8,471258217971073E+003	2,786086458909429E-005	1,142315352632664E-003	2,0000001E-002	1,3581707E+001	13	1,142315352632664E-003	0	1,2486646E+001	2,7244663E-004	1,551475758146799E-005	0,000000000000000E+000	1,340587870601250E+003	0,000000000000000E+000	2,005982274701604E-002	0,000000000000000E+000	1,142315352632664E-003	1,142315352632664E-003	0,0000000E+000	0,0000000E+000	2,0000001E-002	0,000000000000000E+000	1,0950613E+000
1	1	0	0	0	0	1	8,491258217728930E+003	2,786080431617382E-005	1,253758237181024E-003	2,0000001E-002	1,3582469E+001	13	1,253758237181024E-003	0	1,2482957E+001	2,7246133E-004	1,702842152458576E-005	0,000000000000000E+000	1,471008578533767E+003	0,000000000000000E+000	2,005977935051278E-002	0,000000000000000E+000	1,253758237181024E-003	1,253758237181024E-003	0,0000000E+000	0,0000000E+000	2,0000001E-002	0,000000000000000E+000	1,0995121E+000
2	1	0	1	0	0	1	8,613821816245036E+003	6,249847189352538E-004	1,893027827902697E-003	1,0999556E+000	1,3582829E+001	13	1,893027827902697E-003	0	1,2486084E+001	2,5467185E-004	2,571150811904064E-005	0,000000000000000E+000	2,220789437710856E+003	0,000000000000000E+000	1,874954179506194E-002	0,000000000000000E+000	1,893027827902697E-003	1,893027827902697E-003	0,0000000E+000	1,0999556E+000	0,0000000E+000	0,000000000000000E+000	1,0967455E+000
2	1	0	1	0	0	1	9,093821810433583E+003	4,903922276917017E-004	4,013413890623643E-003	1,0999556E+000	1,3580865E+001	13	4,013413890623643E-003	0	1,2484241E+001	1,9979852E-004	5,450878743881782E-005	0,000000000000000E+000	4,711318430640185E+003	0,000000000000000E+000	1,471176700886926E-002	0,000000000000000E+000	4,013413890623643E-003	4,013413890623643E-003	0,0000000E+000	1,0999556E+000	0,0000000E+000	0,000000000000000E+000	1,0966244E+000
2	1	0	1	0	0	1	9,573821804622130E+003	4,294741848244125E-004	5,811940258815833E-003	1,0999556E+000	1,3581627E+001	13	5,811940258815834E-003	0	1,2484641E+001	1,7498875E-004	7,893512169548141E-005	0,000000000000000E+000	6,820901140835035E+003	0,000000000000000E+000	1,288422570072419E-002	0,000000000000000E+000	5,811940258815834E-003	5,811940258815834E-003	0,0000000E+000	1,0999556E+000	0,0000000E+000	0,000000000000000E+000	1,0969858E+000
2	1	0	1	0	0	1	1,005382179881068E+004	3,902855085965453E-004	7,427960770047528E-003	1,0999556E+000	1,3580544E+001	13	7,427960770047530E-003	0	1,2483759E+001	1,5900869E-004	1,008822509838087E-004	0,000000000000000E+000	8,720542264948936E+003	0,000000000000000E+000	1,170856539965423E-002	0,000000000000000E+000	7,427960770047530E-003	7,427960770047530E-003	0,0000000E+000	1,0999556E+000	0,0000000E+000	0,000000000000000E+000	1,0967855E+000
2	1	0	1	0	0	1	1,053382179299922E+004	3,608158884300436E-004	8,913318538330805E-003	1,0999556E+000	1,3579341E+001	13	8,913318538330809E-003	0	1,2482316E+001	1,4698926E-004	1,210538309016739E-004	0,000000000000000E+000	1,046848434198655E+004	0,000000000000000E+000	1,082447678395534E-002	0,000000000000000E+000	8,913318538330809E-003	8,913318538330809E-003	0,0000000E+000	1,0999556E+000	0,0000000E+000	0,000000000000000E+000	1,0970249E+000
2	1	0	1	0	0	1	1,101382178718777E+004	3,365474573699240E-004	1,029462045076997E-002	1,0999556E+000	1,3581105E+001	13	1,029462045076997E-002	0	1,2484281E+001	1,3712060E-004	1,398138716756967E-004	0,000000000000000E+000	1,208383581833979E+004	0,000000000000000E+000	1,009642384333708E-002	0,000000000000000E+000	1,029462045076997E-002	1,029462045076997E-002	0,0000000E+000	1,0999556E+000	0,0000000E+000	0,000000000000000E+000	1,0968246E+000
3	1	0	0	0	0	1	1,108085238637624E+004	0,000000000000000E+000	1,031430107132589E-002	0,0000000E+000	1,4557331E+001	14	1,031429995968664E-002	0	1,3581638E+001	0,0000000E+000	1,400811206439391E-004	0,000000000000000E+000	1,211121004860393E+004	0,000000000000000E+000	0,000000000000000E+000	0,000000000000000E+000	1,031429995968664E-002	1,031429995968664E-002	0,0000000E+000	0,0000000E+000	0,0000000E+000	0,000000000000000E+000	9,7569275E-001
3	1	0	0	0	0	1	1,108090198637563E+004	0,000000000000000E+000	1,031430107132589E-002	0,0000000E+000	1,4557091E+001	14	1,031429995968664E-002	0	1,3582239E+001	0,0000000E+000	1,400811206439391E-004	0,000000000000000E+000	1,211121004860393E+004	0,000000000000000E+000	0,000000000000000E+000	0,000000000000000E+000	1,031429995968664E-002	1,031429995968664E-002	0,0000000E+000	0,0000000E+000	0,0000000E+000	0,000000000000000E+000	9,7485161E-001