File: SAMPLE-MPT/20220309_SSB_Cell_03_Form01/20220309_(Form02C)EIS_charging_10bis16V_step_01V+(1C+EIS)50cycle_07_GEIS_C08.mpt
EC-Lab ASCII FILE
Nb header lines : 72

Galvano Electrochemical Impedance Spectroscopy

Run on channel : 8 (SN 14384)
User :
CE vs. WE compliance from -10 V to 10 V
Electrode connection : standard
Potential control : Ewe-Ece
Ewe ctrl range : min = 0,00 V, max = 5,00 V
Safety Limits :
	Do not start on E overload
Acquisition started on : 03/09/2022 13:55:05.456
Technique started on : 03/09/2022 18:22:28.314
Loaded Setting File :  C:\DATA\x_Data_VMP3\Extern\InES\Binbin\001_Testing_Profiles\20220308_(Form02C)EIS_charging_10bis16V_step_01V+(1C+EIS)50cycle.mps
Saved on :
	File : 20220309_(Form02C)EIS_charging_10bis16V_step_01V+(1C+EIS)50cycle_07_GEIS_C08.mpr
	Directory : C:\DATA\x_Data_VMP3\Extern\InES\Binbin\20220309_SSB_Cell_03_Form01\
	Host : 134.169.45.143
Device : VMP3 (SN 0787)
Address : 134.169.45.150
EC-Lab for windows v11.42 (software)
Internet server v11.40 (firmware)
Command interpretor v11.40 (firmware)
Electrode material :
Initial state :
Electrolyte :
Comments :
Electrode surface area : 0,000 cm²
Characteristic mass : 0,001 g
Equivalent Weight : 0,000 g/eq.
Density : 0,000 g/cm3
Volume (V) : 0,001 cm³
Record Ece
Record Power
Cycle Definition : Charge/Discharge alternance
Mode                Single sine
Is                  0,000
unit Is             µA
vs.                 <None>
tIs (h:m:s)         0:00:0,0000
record              0
dE (mV)             0,000
dt (s)              0,000
fi                  1,000
unit fi             MHz
ff                  5,000
unit ff             mHz
Nd                  6
Points              per decade
spacing             Logarithmic
Ia/Va               Ia
Ia                  5,000
unit  Ia            µA
va pourcent         0,10
pw                  0,10
Na                  2
corr                0
E range min (V)     0,000
E range max (V)     5,000
I Range             10 µA
Bandwidth           5
nc cycles           0
goto Ns'            0
nr cycles           0
inc. cycle          0

Number of loops : 1
Loop 0 from point number 0 to 49

freq/Hz	Re(Z)/Ohm	-Im(Z)/Ohm	|Z|/Ohm	Phase(Z)/deg	time/s	<Ewe>/V	<I>/mA	Cs/µF	Cp/µF	cycle number	|Ewe|/V	|I|/A	Ns	I Range	(Q-Qo)/mA.h	<Ece>/V	|Ece|/V	Phase(Zce)/deg	|Zce|/Ohm	Re(Zce)/Ohm	-Im(Zce)/Ohm	Phase(Zwe-ce)/deg	|Zwe-ce|/Ohm	Re(Zwe-ce)/Ohm	-Im(Zwe-ce)/Ohm	P/W	Re(Y)/Ohm-1	Im(Y)/Ohm-1	|Y|/Ohm-1	Phase(Y)/deg	dq/mA.h
1,0000186E+006	-2,8203691E+001	4,6628044E+001	5,4494244E+001	-1,2116830E+002	1,604285800490505E+004	1,3578366E+001	1,1518180E-005	3,4132246E-003	2,4989524E-003	1,000000000000000E+000	2,7675342E-004	5,0785807E-006	0	14	1,867879957638744E-009	1,2473923E+001	2,1363579E-004	4,3303307E+001	4,2066044E+001	3,0612856E+001	-2,8851433E+001	-8,2282043E+001	1,7939119E+001	2,4091644E+000	1,7776611E+001	0,0000000E+000	-9,4974004E-003	1,5701672E-002	1,8350562E-002	1,2116830E+002	1,867879957638744E-009
3,1029172E+005	1,0297278E+001	3,6905792E+001	3,8315422E+001	-7,4410088E+001	1,604414400496613E+004	1,3578450E+001	1,6216814E-005	1,3898099E-002	1,2894285E-002	1,000000000000000E+000	1,8582898E-004	4,8499787E-006	0	14	7,458220415154907E-009	1,2472680E+001	1,6663938E-004	-2,0631491E+001	3,4358788E+001	3,2155220E+001	1,2106527E+001	-4,9102207E+001	6,4841515E+001	4,2452499E+001	4,9012321E+001	0,0000000E+000	7,0141531E-003	2,5138961E-002	2,6099151E-002	7,4410088E+001	2,494657463911448E-011
9,6283031E+004	6,3095875E+000	-5,3622837E+000	8,2803974E+000	4,0359974E+001	1,604503700500855E+004	1,3578258E+001	1,4892380E-005	-3,0826244E-001	-1,2927596E-001	1,000000000000000E+000	3,9872804E-005	4,8153252E-006	0	14	2,660642882568077E-009	1,2472479E+001	3,2569302E-004	-5,2542614E+001	6,7636765E+001	4,1134731E+001	5,3690460E+001	-4,5528751E+001	6,7724266E+001	4,7444321E+001	4,8328178E+001	0,0000000E+000	9,2023470E-002	-7,8207329E-002	1,2076715E-001	-4,0359974E+001	-1,797524826373199E-009
2,9876783E+004	1,5566438E+000	-3,6399260E+000	3,9588132E+000	6,6845634E+001	1,604619200506341E+004	1,3578310E+001	1,8319042E-005	-1,4635035E+000	-1,2372254E+000	1,000000000000000E+000	1,8752509E-005	4,7369017E-006	0	14	1,430039418363549E-008	1,2474885E+001	6,8740931E-004	-5,3200615E+001	1,4511792E+002	8,6927818E+001	1,1620140E+002	-5,1829147E+001	1,4317676E+002	8,8484459E+001	1,1256148E+002	0,0000000E+000	9,9325158E-002	-2,3225366E-001	2,5260097E-001	-6,6845634E+001	4,646135031129638E-009
9,2692256E+003	1,0277617E+000	2,4057145E+000	2,6160574E+000	-6,6867012E+001	1,604734700511827E+004	1,3578292E+001	1,4432949E-005	7,1372771E+000	6,0356803E+000	1,000000000000000E+000	1,2437837E-005	4,7544204E-006	0	14	1,651909910024566E-008	1,2473361E+001	1,4319133E-003	-5,3829185E+001	3,0117517E+002	1,7775194E+002	2,4312698E+002	-5,3940517E+001	3,0372437E+002	1,7877969E+002	2,4553270E+002	0,0000000E+000	1,5017508E-001	3,5151958E-001	3,8225460E-001	6,6867012E+001	3,189596977133786E-009
2,8779956E+003	1,2220209E+000	1,9372651E-001	1,2372813E+000	-9,0081148E+000	1,604855900517583E+004	1,3578179E+001	7,4769368E-006	2,8545715E+002	6,9981318E+000	1,000000000000000E+000	5,6874756E-006	4,5967522E-006	0	14	1,380010026538988E-008	1,2472359E+001	2,8513141E-003	-4,9731213E+001	6,2028888E+002	4,0093875E+002	4,7329315E+002	-4,9656761E+001	6,2122711E+002	4,0216077E+002	4,7348688E+002	0,0000000E+000	7,9825515E-001	1,2654708E-001	8,0822361E-001	9,0081148E+000	-3,328686664157803E-009
8,9299957E+002	-4,5571834E-001	2,6549854E+000	2,6938126E+000	-9,9739693E+001	1,605012500525021E+004	1,3578271E+001	5,4997490E-006	6,7128471E+001	6,5207306E+001	1,000000000000000E+000	1,2906386E-005	4,7911221E-006	0	14	1,809976867815522E-008	1,2479615E+001	5,4785144E-003	-4,1187458E+001	1,1434720E+003	8,6053027E+002	7,5300464E+002	-4,1302467E+001	1,1448798E+003	8,6007458E+002	7,5565961E+002	0,0000000E+000	-6,2800288E-002	3,6587048E-001	3,7122107E-001	9,9739693E+001	2,712435829203567E-009
2,7686047E+002	3,2736483E+000	2,7021214E-001	3,2847812E+000	-4,7185884E+000	1,605145600531343E+004	1,3578059E+001	6,2685344E-006	2,1274253E+003	1,4396308E+001	1,000000000000000E+000	1,5652578E-005	4,7651815E-006	0	14	2,052788237371791E-008	1,2467789E+001	8,7696929E-003	-3,2372841E+001	1,8403691E+003	1,5543423E+003	9,8538245E+002	-3,2325451E+001	1,8432793E+003	1,5576160E+003	9,8565265E+002	0,0000000E+000	3,0340245E-001	2,5043324E-002	3,0443427E-001	4,7185884E+000	8,947108354833413E-010
8,5907173E+001	1,4457803E+001	1,2104892E+001	1,8856205E+001	-3,9937977E+001	1,605278600537661E+004	1,3578098E+001	7,1362138E-006	1,5304875E+002	6,3072933E+001	1,000000000000000E+000	8,9761226E-005	4,7603016E-006	0	14	1,803669726707666E-008	1,2484185E+001	1,2540065E-002	-2,4249704E+001	2,6343005E+003	2,4018608E+003	1,0819445E+003	-2,4359842E+001	2,6524592E+003	2,4163186E+003	1,0940493E+003	0,0000000E+000	4,0662467E-002	3,4044921E-002	5,3032942E-002	3,9937977E+001	-2,643508645456274E-009
2,6682035E+001	5,9015193E+000	1,6641074E+000	6,1316543E+000	-1,5747363E+001	1,605411400543968E+004	1,3578083E+001	4,9832461E-006	3,5844275E+003	2,6401416E+002	1,000000000000000E+000	2,9204986E-005	4,7629865E-006	0	14	2,706271629605478E-008	1,2488636E+001	1,6358908E-002	-1,6220417E+001	3,4345906E+003	3,2978740E+003	9,5939545E+002	-1,6219574E+001	3,4407222E+003	3,3037756E+003	9,6105957E+002	0,0000000E+000	1,5696706E-001	4,4261489E-002	1,6308813E-001	1,5747363E+001	-1,691736694839266E-009
8,2759562E+000	4,0693808E+000	4,8829784E+000	6,3563619E+000	-5,0192822E+001	1,605550400550570E+004	1,3578202E+001	9,1309521E-006	3,9383755E+003	2,3241787E+003	1,000000000000000E+000	3,0269019E-005	4,7620038E-006	0	14	5,925533376532460E-008	1,2470796E+001	1,8873345E-002	-9,6784439E+000	3,9633201E+003	3,9069092E+003	6,6630750E+002	-9,7380676E+000	3,9681545E+003	3,9109785E+003	6,7119049E+002	0,0000000E+000	1,0071893E-001	1,2085582E-001	1,5732270E-001	5,0192822E+001	4,605765772750677E-008
2,5682116E+000	4,4274683E+000	-1,4730982E+000	4,6661005E+000	1,8403210E+001	1,605732400559215E+004	1,3578275E+001	6,4411965E-006	-4,2068559E+004	-4,1928838E+003	1,000000000000000E+000	2,2214208E-005	4,7607650E-006	0	14	-9,245385208367276E-009	1,2465464E+001	2,0493714E-002	-6,9152727E+000	4,3047104E+003	4,2733950E+003	5,1829346E+002	-6,8887396E+000	4,3089287E+003	4,2778223E+003	5,1682037E+002	0,0000000E+000	2,0335145E-001	-6,7658678E-002	2,1431172E-001	-1,8403210E+001	1,127407660348783E-008
7,9621863E-001	8,0287514E+000	4,1309047E+000	9,0291319E+000	-2,7226454E+001	1,606303100586322E+004	1,3578151E+001	7,0655378E-006	4,8388555E+004	1,0128403E+004	1,000000000000000E+000	4,2994703E-005	4,7617759E-006	0	14	2,792871608347522E-007	1,2477130E+001	2,1999732E-002	-6,7545652E+000	4,6200688E+003	4,5880015E+003	5,4339642E+002	-6,7936563E+000	4,6285288E+003	4,5960303E+003	5,4752734E+002	0,0000000E+000	9,8481812E-002	5,0670266E-002	1,1075262E-001	2,7226454E+001	6,790385488999424E-008
2,4724665E-001	1,4285184E+001	7,9855242E+000	1,6365667E+001	-2,9205517E+001	1,608128400673019E+004	1,3577931E+001	6,9935604E-006	8,0609508E+004	1,9192242E+004	1,000000000000000E+000	7,7918266E-005	4,7610811E-006	0	14	-6,775700637695144E-007	1,2501625E+001	2,4401596E-002	-7,4513392E+000	5,1252217E+003	5,0819409E+003	6,6465985E+002	-7,5189466E+000	5,1404253E+003	5,0962261E+003	6,7264539E+002	0,0000000E+000	5,3335745E-002	2,9815082E-002	6,1103527E-002	2,9205517E+001	-5,301105563402315E-007
7,6773763E-002	2,1935146E+001	7,6229709E-001	2,1948389E+001	-1,9903598E+000	1,613998100951815E+004	1,3578290E+001	6,7937449E-006	2,7194623E+006	3,2803960E+003	1,000000000000000E+000	1,0449391E-004	4,7608919E-006	0	14	4,717672253159119E-007	1,2462977E+001	2,7955633E-002	-1,0374847E+001	5,8719316E+003	5,7759292E+003	1,0574606E+003	-1,0343735E+001	5,8936460E+003	5,7978643E+003	1,0582229E+003	0,0000000E+000	4,5533940E-002	1,5824097E-003	4,5561429E-002	1,9903598E+000	1,379608732249469E-006
2,3795672E-002	2,0145840E+001	6,8174072E+001	7,1088387E+001	-7,3537277E+001	1,632909301850048E+004	1,3578334E+001	6,7179712E-006	9,8107656E+004	9,0228570E+004	1,000000000000000E+000	3,3845339E-004	4,7610224E-006	0	14	8,040537028501452E-006	1,2493206E+001	3,2507543E-002	-1,1336457E+001	6,8278491E+003	6,6946362E+003	1,3421509E+003	-1,1861583E+001	6,8612910E+003	6,7147822E+003	1,4103250E+003	0,0000000E+000	3,9864662E-003	1,3490309E-002	1,4066995E-002	7,3537277E+001	1,568920577231363E-006
7,3873415E-003	5,9569269E-001	3,6480865E+001	3,6485729E+001	-8,9064507E+001	1,693838704744040E+004	1,3577824E+001	6,8348063E-006	5,9056375E+005	5,9040638E+005	1,000000000000000E+000	1,7371157E-004	4,7610824E-006	0	14	-2,382248969341516E-005	1,2547729E+001	4,0075369E-002	-1,0929689E+001	8,4172813E+003	8,2645967E+003	1,5959523E+003	-1,1172521E+001	8,4248584E+003	8,2651924E+003	1,6324331E+003	0,0000000E+000	4,4748222E-004	2,7404323E-002	2,7407976E-002	8,9064507E+001	-1,744228520913535E-005
5,0018891E-003	2,0760176E+001	1,4418211E+001	2,5275871E+001	-3,4780479E+001	1,735972906745307E+004	1,3577901E+001	7,3974811E-006	2,2068595E+006	7,1810038E+005	1,000000000000000E+000	1,2033475E-004	4,7608546E-006	0	14	-4,078642520393821E-005	1,2538949E+001	4,3302391E-002	-1,1572311E+001	9,0955078E+003	8,9106172E+003	1,8245999E+003	-1,1634896E+001	9,1187432E+003	8,9313770E+003	1,8390181E+003	0,0000000E+000	3,2495167E-002	2,2568313E-002	3,9563425E-002	3,4780479E+001	-1,696393551052305E-005